wavelength,reflectivity
1300.0,73.2
1302.0,73.24
1304.0,73.29
1306.0,73.3
1308.0,73.45
1310.0,73.64
1312.0,73.54
1314.0,73.47
1316.0,73.15
1318.0,72.79
1320.0,72.67
1322.0,72.73
1324.0,72.88
1326.0,73.01
1328.0,72.95
1330.0,72.825
1332.0,72.71
1334.0,72.71
1336.0,72.69
1338.0,72.715
1340.0,72.74
1342.0,72.715
1344.0,72.645
1346.0,72.62
1348.0,72.62
1350.0,72.61
1352.0,72.62
1354.0,72.61
1356.0,72.57
1358.0,72.56
1360.0,72.62
1362.0,72.66
1364.0,72.66
1366.0,72.62
1368.0,72.55
1370.0,72.5
1372.0,72.46
1374.0,72.41
1376.0,72.34
1378.0,72.27
1380.0,72.19
1382.0,72.1
1384.0,71.96
1386.0,71.8
1388.0,71.63
1390.0,71.49
1392.0,71.35
1394.0,71.17
1396.0,70.955
1398.0,70.77
1400.0,70.57
1402.0,70.41
1404.0,70.25
1406.0,70.09
1408.0,69.98
1410.0,69.87
1412.0,69.79
1414.0,69.72
1416.0,69.64
1418.0,69.58
1420.0,69.51
1422.0,69.45
1424.0,69.39
1426.0,69.3
1428.0,69.21
1430.0,69.14
1432.0,69.14
1434.0,69.16
1436.0,69.17
1438.0,69.19
1440.0,69.18
1442.0,69.15
1444.0,69.125
1446.0,69.07
1448.0,69.09
1450.0,69.11
1452.0,69.14
1454.0,69.14
1456.0,69.125
1458.0,69.14
1460.0,69.19
1462.0,69.24
1464.0,69.29
1466.0,69.3
1468.0,69.31
1470.0,69.35
1472.0,69.39
1474.0,69.46
1476.0,69.52
1478.0,69.58
1480.0,69.65
1482.0,69.75
1484.0,69.84
1486.0,69.96
1488.0,70.01
1490.0,70.06
1492.0,70.095
1494.0,70.18
1496.0,70.28
1498.0,70.37
1500.0,70.46
1502.0,70.54
1504.0,70.62
1506.0,70.72
1508.0,70.82
1510.0,70.92
1512.0,70.98
1514.0,71.05
1516.0,71.09
1518.0,71.13
1520.0,71.21
1522.0,71.29
1524.0,71.35
1526.0,71.41
1528.0,71.46
1530.0,71.51
1532.0,71.59
1534.0,71.65
1536.0,71.7
1538.0,71.77
1540.0,71.83
1542.0,71.9
1544.0,71.97
1546.0,72.02
1548.0,72.08
1550.0,72.105
1552.0,72.17
1554.0,72.21
1556.0,72.25
1558.0,72.285
1560.0,72.35
1562.0,72.39
1564.0,72.42
1566.0,72.45
1568.0,72.48
1570.0,72.56
1572.0,72.63
1574.0,72.69
1576.0,72.68
1578.0,72.68
1580.0,72.645
1582.0,72.68
1584.0,72.73
1586.0,72.81
1588.0,72.85
1590.0,72.85
1592.0,72.84
1594.0,72.85
1596.0,72.91
1598.0,72.96
1600.0,72.98
1602.0,72.98
1604.0,72.95
1606.0,72.96
1608.0,72.98
1610.0,73.0
1612.0,73.0
1614.0,72.99
1616.0,72.99
1618.0,73.01
1620.0,73.04
1622.0,73.07
1624.0,73.075
1626.0,73.06
1628.0,73.02
1630.0,72.95
1632.0,72.95
1634.0,72.95
1636.0,72.97
1638.0,72.99
1640.0,72.99
1642.0,72.99
1644.0,72.97
1646.0,72.98
1648.0,73.01
1650.0,73.02
1652.0,73.03
1654.0,73.0
1656.0,72.95
1658.0,72.97
1660.0,72.97
1662.0,72.96
1664.0,72.96
1666.0,72.88
1668.0,72.85
1670.0,72.79
1672.0,72.78
1674.0,72.77
1676.0,72.77
1678.0,72.78
1680.0,72.78
1682.0,72.8
1684.0,72.8
1686.0,72.78
1688.0,72.78
1690.0,72.78
1692.0,72.76
1694.0,72.79
1696.0,72.77
1698.0,72.8
1700.0,72.825
1702.0,72.84
1704.0,72.85
1706.0,72.85
1708.0,72.82
1710.0,72.77
1712.0,72.715
1714.0,72.67
1716.0,72.67
1718.0,72.63
1720.0,72.61
1722.0,72.56
1724.0,72.52
1726.0,72.5
1728.0,72.46
1730.0,72.465
1732.0,72.48
1734.0,72.465
1736.0,72.535
1738.0,72.535
1740.0,72.51
1742.0,72.48
1744.0,72.44
1746.0,72.46
1748.0,72.465
1750.0,72.41
1752.0,72.355
1754.0,72.3
1756.0,72.28
1758.0,72.25
1760.0,72.22
1762.0,72.18
1764.0,72.14
1766.0,72.12
1768.0,72.07
1770.0,72.01
1772.0,71.97
1774.0,71.94
1776.0,71.88
1778.0,71.83
1780.0,71.78
1782.0,71.71
1784.0,71.67
1786.0,71.63
1788.0,71.59
1790.0,71.565
1792.0,71.54
1794.0,71.49
1796.0,71.46
1798.0,71.42
1800.0,71.37
1802.0,71.37
1804.0,71.34
1806.0,71.31
1808.0,71.28
1810.0,71.24
1812.0,71.2
1814.0,71.17
1816.0,71.16
1818.0,71.135
1820.0,71.13
1822.0,71.12
1824.0,71.12
1826.0,71.12
1828.0,71.08
1830.0,71.06
1832.0,71.065
1834.0,71.065
1836.0,71.1
1838.0,71.11
1840.0,71.09
1842.0,71.05
1844.0,70.97
1846.0,70.93
1848.0,70.9
1850.0,70.83
1852.0,70.8
1854.0,70.73
1856.0,70.62
1858.0,70.48
1860.0,70.33
1862.0,70.2
1864.0,70.05
1866.0,69.83
1868.0,69.55
1870.0,69.24
1872.0,68.91
1874.0,68.585
1876.0,68.22
1878.0,67.74
1880.0,67.255
1882.0,66.75
1884.0,66.215
1886.0,65.66
1888.0,65.05
1890.0,64.47
1892.0,63.9
1894.0,63.35
1896.0,62.85
1898.0,62.39
1900.0,61.96
1902.0,61.54
1904.0,61.15
1906.0,60.85
1908.0,60.62
1910.0,60.39
1912.0,60.145
1914.0,59.92
1916.0,59.75
1918.0,59.6
1920.0,59.47
1922.0,59.37
1924.0,59.28
1926.0,59.22
1928.0,59.17
1930.0,59.09
1932.0,58.98
1934.0,58.92
1936.0,58.89
1938.0,58.87
1940.0,58.87
1942.0,58.84
1944.0,58.86
1946.0,58.93
1948.0,59.01
1950.0,59.09
1952.0,59.14
1954.0,59.21
1956.0,59.27
1958.0,59.33
1960.0,59.39
1962.0,59.425
1964.0,59.44
1966.0,59.51
1968.0,59.59
1970.0,59.71
1972.0,59.855
1974.0,59.965
1976.0,60.09
1978.0,60.215
1980.0,60.38
1982.0,60.54
1984.0,60.72
1986.0,60.9
1988.0,61.08
1990.0,61.28
1992.0,61.48
1994.0,61.69
1996.0,61.9
1998.0,62.07
2000.0,62.29
2002.0,62.49
2004.0,62.695
2006.0,62.875
2008.0,63.05
2010.0,63.23
2012.0,63.41
2014.0,63.58
2016.0,63.72
2018.0,63.81
2020.0,63.89
2022.0,64.01
2024.0,64.09
2026.0,64.17
2028.0,64.23
2030.0,64.29
2032.0,64.32
2034.0,64.34
2036.0,64.37
2038.0,64.4
2040.0,64.45
2042.0,64.42
2044.0,64.41
2046.0,64.4
2048.0,64.38
2050.0,64.345
2052.0,64.275
2054.0,64.23
2056.0,64.17
2058.0,64.095
2060.0,64.05
2062.0,64.07
2064.0,64.04
2066.0,63.96
2068.0,63.86
2070.0,63.79
2072.0,63.7
2074.0,63.54
2076.0,63.38
2078.0,63.23
2080.0,63.17
2082.0,63.19
2084.0,63.33
2086.0,63.6
2088.0,63.94
2090.0,64.26
2092.0,64.525
2094.0,64.79
2096.0,65.05
2098.0,65.31
2100.0,65.49
2102.0,65.59
2104.0,65.72
2106.0,65.855
2108.0,66.035
2110.0,66.105
2112.0,66.19
2114.0,66.34
2116.0,66.49
2118.0,66.63
2120.0,66.71
2122.0,66.79
2124.0,66.89
2126.0,66.98
2128.0,67.0
2130.0,66.99
2132.0,67.0
2134.0,67.075
2136.0,67.16
2138.0,67.24
2140.0,67.31
2142.0,67.36
2144.0,67.39
2146.0,67.38
2148.0,67.435
2150.0,67.48
2152.0,67.53
2154.0,67.53
2156.0,67.54
2158.0,67.53
2160.0,67.53
2162.0,67.54
2164.0,67.52
2166.0,67.52
2168.0,67.48
2170.0,67.41
2172.0,67.32
2174.0,67.25
2176.0,67.2
2178.0,67.13
2180.0,67.005
2182.0,66.92
2184.0,66.78
2186.0,66.66
2188.0,66.56
2190.0,66.45
2192.0,66.34
2194.0,66.17
2196.0,66.0
2198.0,65.8
2200.0,65.6
2202.0,65.46
2204.0,65.35
2206.0,65.245
2208.0,65.13
2210.0,64.95
2212.0,64.8
2214.0,64.635
2216.0,64.51
2218.0,64.37
2220.0,64.17
2222.0,63.91
2224.0,63.62
2226.0,63.27
2228.0,62.89
2230.0,62.5
2232.0,62.14
2234.0,61.96
2236.0,61.87
2238.0,61.87
2240.0,61.87
2242.0,61.79
2244.0,61.64
2246.0,61.4
2248.0,61.17
2250.0,61.005
2252.0,60.89
2254.0,60.85
2256.0,60.81
2258.0,60.8
2260.0,60.87
2262.0,61.0
2264.0,61.07
2266.0,61.08
2268.0,61.05
2270.0,61.09
2272.0,61.02
2274.0,60.91
2276.0,60.73
2278.0,60.59
2280.0,60.44
2282.0,60.31
2284.0,60.145
2286.0,60.01
2288.0,59.89
2290.0,59.77
2292.0,59.57
2294.0,59.34
2296.0,59.15
2298.0,58.94
2300.0,58.74
2302.0,58.56
2304.0,58.41
2306.0,58.22
2308.0,58.0
2310.0,57.78
2312.0,57.485
2314.0,57.2
2316.0,56.91
2318.0,56.69
2320.0,56.49
2322.0,56.2
2324.0,55.92
2326.0,55.655
2328.0,55.45
2330.0,55.17
2332.0,54.89
2334.0,54.64
2336.0,54.42
2338.0,54.145
2340.0,53.8
2342.0,53.43
2344.0,53.105
2346.0,52.91
2348.0,52.72
2350.0,52.45
2352.0,52.135
2354.0,51.82
2356.0,51.57
2358.0,51.32
2360.0,51.055
2362.0,50.86
2364.0,50.61
2366.0,50.34
2368.0,50.01
2370.0,49.7
2372.0,49.49
2374.0,49.31
2376.0,49.04
2378.0,48.69
2380.0,48.29
2382.0,48.03
2384.0,47.78
2386.0,47.49
2388.0,47.2
2390.0,46.89
2392.0,46.62
2394.0,46.32
2396.0,46.03
2398.0,45.75
2400.0,45.47
2402.0,45.17
2404.0,44.85
2406.0,44.59
2408.0,44.29
2410.0,43.91
2412.0,43.6
2414.0,43.36
2416.0,43.11
2418.0,42.71
2420.0,42.27
2422.0,41.91
2424.0,41.69
2426.0,41.53
2428.0,41.4
2430.0,41.29
2432.0,41.31
2434.0,41.33
2436.0,41.25
2438.0,41.11
2440.0,40.93
2442.0,40.71
2444.0,40.38
2446.0,40.04
2448.0,39.72
2450.0,39.43
2452.0,39.24
2454.0,39.085
2456.0,38.89
2458.0,38.72
2460.0,38.62
2462.0,38.6
2464.0,38.65
2466.0,38.72
2468.0,38.81
2470.0,38.88
2472.0,39.06
2474.0,39.2
2476.0,39.265
2478.0,39.31
2480.0,39.53
2482.0,39.84
2484.0,40.16
2486.0,40.36
2488.0,40.51
2490.0,40.68
2492.0,40.92
2494.0,41.27
2496.0,41.6
2498.0,41.76
2500.0,41.88
