wavelength,reflectivity
1300.0,69.985
1302.0,70.12
1304.0,69.97
1306.0,69.63
1308.0,69.51
1310.0,69.48
1312.0,69.49
1314.0,69.555
1316.0,69.52
1318.0,69.42
1320.0,69.31
1322.0,69.25
1324.0,69.23
1326.0,69.28
1328.0,69.37
1330.0,69.41
1332.0,69.43
1334.0,69.3
1336.0,69.195
1338.0,69.195
1340.0,69.23
1342.0,69.22
1344.0,69.26
1346.0,69.21
1348.0,69.16
1350.0,69.17
1352.0,69.16
1354.0,69.125
1356.0,69.125
1358.0,69.16
1360.0,69.14
1362.0,69.1
1364.0,69.05
1366.0,69.015
1368.0,69.01
1370.0,69.015
1372.0,68.99
1374.0,68.96
1376.0,68.96
1378.0,68.97
1380.0,68.945
1382.0,68.96
1384.0,68.945
1386.0,68.91
1388.0,68.835
1390.0,68.75
1392.0,68.68
1394.0,68.66
1396.0,68.64
1398.0,68.585
1400.0,68.53
1402.0,68.47
1404.0,68.405
1406.0,68.39
1408.0,68.35
1410.0,68.33
1412.0,68.33
1414.0,68.32
1416.0,68.29
1418.0,68.28
1420.0,68.28
1422.0,68.26
1424.0,68.24
1426.0,68.2
1428.0,68.17
1430.0,68.17
1432.0,68.17
1434.0,68.19
1436.0,68.21
1438.0,68.21
1440.0,68.17
1442.0,68.13
1444.0,68.09
1446.0,68.1
1448.0,68.11
1450.0,68.14
1452.0,68.155
1454.0,68.17
1456.0,68.15
1458.0,68.11
1460.0,68.09
1462.0,68.12
1464.0,68.15
1466.0,68.17
1468.0,68.17
1470.0,68.17
1472.0,68.2
1474.0,68.21
1476.0,68.21
1478.0,68.24
1480.0,68.26
1482.0,68.29
1484.0,68.3
1486.0,68.29
1488.0,68.335
1490.0,68.39
1492.0,68.4
1494.0,68.42
1496.0,68.43
1498.0,68.44
1500.0,68.44
1502.0,68.43
1504.0,68.44
1506.0,68.48
1508.0,68.55
1510.0,68.585
1512.0,68.61
1514.0,68.62
1516.0,68.64
1518.0,68.64
1520.0,68.65
1522.0,68.66
1524.0,68.67
1526.0,68.67
1528.0,68.66
1530.0,68.65
1532.0,68.66
1534.0,68.67
1536.0,68.67
1538.0,68.66
1540.0,68.67
1542.0,68.67
1544.0,68.65
1546.0,68.64
1548.0,68.64
1550.0,68.65
1552.0,68.67
1554.0,68.65
1556.0,68.62
1558.0,68.64
1560.0,68.74
1562.0,68.82
1564.0,68.88
1566.0,68.88
1568.0,68.85
1570.0,68.89
1572.0,68.91
1574.0,68.96
1576.0,68.98
1578.0,69.01
1580.0,69.01
1582.0,69.0
1584.0,68.97
1586.0,68.97
1588.0,68.99
1590.0,69.015
1592.0,69.05
1594.0,69.015
1596.0,68.99
1598.0,68.96
1600.0,68.99
1602.0,69.05
1604.0,69.03
1606.0,68.94
1608.0,68.87
1610.0,68.82
1612.0,68.82
1614.0,68.85
1616.0,68.88
1618.0,68.87
1620.0,68.82
1622.0,68.76
1624.0,68.72
1626.0,68.69
1628.0,68.68
1630.0,68.69
1632.0,68.68
1634.0,68.69
1636.0,68.66
1638.0,68.63
1640.0,68.62
1642.0,68.65
1644.0,68.62
1646.0,68.57
1648.0,68.49
1650.0,68.47
1652.0,68.48
1654.0,68.51
1656.0,68.54
1658.0,68.55
1660.0,68.5
1662.0,68.44
1664.0,68.36
1666.0,68.28
1668.0,68.21
1670.0,68.08
1672.0,68.0
1674.0,67.94
1676.0,67.89
1678.0,67.88
1680.0,67.86
1682.0,67.86
1684.0,67.865
1686.0,67.84
1688.0,67.81
1690.0,67.76
1692.0,67.67
1694.0,67.63
1696.0,67.64
1698.0,67.65
1700.0,67.64
1702.0,67.56
1704.0,67.46
1706.0,67.41
1708.0,67.35
1710.0,67.3
1712.0,67.22
1714.0,67.17
1716.0,67.2
1718.0,67.17
1720.0,67.1
1722.0,67.06
1724.0,67.06
1726.0,67.07
1728.0,67.1
1730.0,67.05
1732.0,67.005
1734.0,66.97
1736.0,66.94
1738.0,66.97
1740.0,67.005
1742.0,67.005
1744.0,66.96
1746.0,66.92
1748.0,66.92
1750.0,66.97
1752.0,67.06
1754.0,67.15
1756.0,67.24
1758.0,67.34
1760.0,67.42
1762.0,67.51
1764.0,67.59
1766.0,67.615
1768.0,67.615
1770.0,67.6
1772.0,67.59
1774.0,67.6
1776.0,67.58
1778.0,67.54
1780.0,67.48
1782.0,67.42
1784.0,67.38
1786.0,67.29
1788.0,67.2
1790.0,67.11
1792.0,67.06
1794.0,66.99
1796.0,66.87
1798.0,66.75
1800.0,66.62
1802.0,66.51
1804.0,66.36
1806.0,66.18
1808.0,66.0
1810.0,65.85
1812.0,65.72
1814.0,65.57
1816.0,65.38
1818.0,65.15
1820.0,64.94
1822.0,64.79
1824.0,64.635
1826.0,64.47
1828.0,64.32
1830.0,64.19
1832.0,64.09
1834.0,63.91
1836.0,63.66
1838.0,63.39
1840.0,63.125
1842.0,62.87
1844.0,62.585
1846.0,62.27
1848.0,61.93
1850.0,61.66
1852.0,61.41
1854.0,61.16
1856.0,60.96
1858.0,60.84
1860.0,60.89
1862.0,61.21
1864.0,61.65
1866.0,62.21
1868.0,62.81
1870.0,63.41
1872.0,63.915
1874.0,64.26
1876.0,64.48
1878.0,64.61
1880.0,64.74
1882.0,64.81
1884.0,64.815
1886.0,64.77
1888.0,64.66
1890.0,64.55
1892.0,64.38
1894.0,64.19
1896.0,63.98
1898.0,63.77
1900.0,63.62
1902.0,63.485
1904.0,63.34
1906.0,63.22
1908.0,63.08
1910.0,62.92
1912.0,62.76
1914.0,62.58
1916.0,62.44
1918.0,62.33
1920.0,62.19
1922.0,62.04
1924.0,61.905
1926.0,61.78
1928.0,61.6
1930.0,61.4
1932.0,61.185
1934.0,61.005
1936.0,60.85
1938.0,60.71
1940.0,60.575
1942.0,60.47
1944.0,60.34
1946.0,60.23
1948.0,60.145
1950.0,60.07
1952.0,60.0
1954.0,59.94
1956.0,59.89
1958.0,59.81
1960.0,59.65
1962.0,59.47
1964.0,59.34
1966.0,59.22
1968.0,59.065
1970.0,58.86
1972.0,58.65
1974.0,58.47
1976.0,58.275
1978.0,58.11
1980.0,57.94
1982.0,57.8
1984.0,57.7
1986.0,57.62
1988.0,57.65
1990.0,57.82
1992.0,58.11
1994.0,58.49
1996.0,58.9
1998.0,59.31
2000.0,59.72
2002.0,60.13
2004.0,60.49
2006.0,60.755
2008.0,60.98
2010.0,61.17
2012.0,61.38
2014.0,61.56
2016.0,61.7
2018.0,61.82
2020.0,61.93
2022.0,62.01
2024.0,62.05
2026.0,62.08
2028.0,62.1
2030.0,62.13
2032.0,62.14
2034.0,62.19
2036.0,62.23
2038.0,62.24
2040.0,62.28
2042.0,62.24
2044.0,62.25
2046.0,62.26
2048.0,62.28
2050.0,62.27
2052.0,62.24
2054.0,62.21
2056.0,62.19
2058.0,62.15
2060.0,62.1
2062.0,62.06
2064.0,62.01
2066.0,61.92
2068.0,61.85
2070.0,61.79
2072.0,61.71
2074.0,61.58
2076.0,61.47
2078.0,61.36
2080.0,61.23
2082.0,61.15
2084.0,61.03
2086.0,60.95
2088.0,60.86
2090.0,60.74
2092.0,60.62
2094.0,60.46
2096.0,60.35
2098.0,60.32
2100.0,60.24
2102.0,60.16
2104.0,60.01
2106.0,59.81
2108.0,59.66
2110.0,59.47
2112.0,59.3
2114.0,59.08
2116.0,58.86
2118.0,58.635
2120.0,58.43
2122.0,58.22
2124.0,57.99
2126.0,57.73
2128.0,57.52
2130.0,57.3
2132.0,57.08
2134.0,56.94
2136.0,56.78
2138.0,56.71
2140.0,56.68
2142.0,56.69
2144.0,56.72
2146.0,56.76
2148.0,56.82
2150.0,56.95
2152.0,57.11
2154.0,57.27
2156.0,57.39
2158.0,57.52
2160.0,57.64
2162.0,57.77
2164.0,57.89
2166.0,57.97
2168.0,58.0
2170.0,58.01
2172.0,57.98
2174.0,57.95
2176.0,57.93
2178.0,57.89
2180.0,57.8
2182.0,57.66
2184.0,57.51
2186.0,57.33
2188.0,57.14
2190.0,56.875
2192.0,56.57
2194.0,56.25
2196.0,55.95
2198.0,55.63
2200.0,55.25
2202.0,54.82
2204.0,54.41
2206.0,54.03
2208.0,53.65
2210.0,53.21
2212.0,52.77
2214.0,52.28
2216.0,51.87
2218.0,51.48
2220.0,51.07
2222.0,50.6
2224.0,50.17
2226.0,49.84
2228.0,49.49
2230.0,49.09
2232.0,48.56
2234.0,48.05
2236.0,47.56
2238.0,47.03
2240.0,46.45
2242.0,45.78
2244.0,45.03
2246.0,44.29
2248.0,43.54
2250.0,42.7
2252.0,41.88
2254.0,41.07
2256.0,40.3
2258.0,39.49
2260.0,38.69
2262.0,38.04
2264.0,37.505
2266.0,37.055
2268.0,36.68
2270.0,36.43
2272.0,36.21
2274.0,36.03
2276.0,35.835
2278.0,35.67
2280.0,35.475
2282.0,35.21
2284.0,34.89
2286.0,34.505
2288.0,34.15
2290.0,33.83
2292.0,33.53
2294.0,33.195
2296.0,32.835
2298.0,32.45
2300.0,32.09
2302.0,31.775
2304.0,31.46
2306.0,31.24
2308.0,30.985
2310.0,30.79
2312.0,30.555
2314.0,30.37
2316.0,30.28
2318.0,30.26
2320.0,30.31
2322.0,30.42
2324.0,30.69
2326.0,31.075
2328.0,31.61
2330.0,32.34
2332.0,33.285
2334.0,34.34
2336.0,35.42
2338.0,36.57
2340.0,37.79
2342.0,39.11
2344.0,40.56
2346.0,42.06
2348.0,43.56
2350.0,44.98
2352.0,46.25
2354.0,47.27
2356.0,48.08
2358.0,48.77
2360.0,49.35
2362.0,49.86
2364.0,50.19
2366.0,50.48
2368.0,50.625
2370.0,50.69
2372.0,50.69
2374.0,50.65
2376.0,50.55
2378.0,50.24
2380.0,49.83
2382.0,49.32
2384.0,48.89
2386.0,48.58
2388.0,48.36
2390.0,48.18
2392.0,47.97
2394.0,47.67
2396.0,47.29
2398.0,46.9
2400.0,46.5
2402.0,46.06
2404.0,45.64
2406.0,45.25
2408.0,44.89
2410.0,44.61
2412.0,44.33
2414.0,43.87
2416.0,43.3
2418.0,42.68
2420.0,42.01
2422.0,41.19
2424.0,40.3
2426.0,39.42
2428.0,38.54
2430.0,37.7
2432.0,36.9
2434.0,36.08
2436.0,35.24
2438.0,34.38
2440.0,33.66
2442.0,32.79
2444.0,31.88
2446.0,30.985
2448.0,30.25
2450.0,29.53
2452.0,28.84
2454.0,28.28
2456.0,27.85
2458.0,27.49
2460.0,27.14
2462.0,26.89
2464.0,26.76
2466.0,26.64
2468.0,26.48
2470.0,26.22
2472.0,26.01
2474.0,25.86
2476.0,25.65
2478.0,25.27
2480.0,24.77
2482.0,24.19
2484.0,23.66
2486.0,23.16
2488.0,22.75
2490.0,22.35
2492.0,22.06
2494.0,21.71
2496.0,21.35
2498.0,21.08
2500.0,20.75
