wavelength,reflectivity
1300.0,81.83
1302.0,81.87
1304.0,81.59
1306.0,81.29
1308.0,81.23
1310.0,81.22
1312.0,81.16
1314.0,81.16
1316.0,81.14
1318.0,81.01
1320.0,80.82
1322.0,80.71
1324.0,80.46
1326.0,80.27
1328.0,80.18
1330.0,80.05
1332.0,80.0
1334.0,79.91
1336.0,79.755
1338.0,79.47
1340.0,79.28
1342.0,79.06
1344.0,78.785
1346.0,78.51
1348.0,78.07
1350.0,77.56
1352.0,77.06
1354.0,76.5
1356.0,76.03
1358.0,75.68
1360.0,75.35
1362.0,75.06
1364.0,74.72
1366.0,74.32
1368.0,73.86
1370.0,73.255
1372.0,72.45
1374.0,71.46
1376.0,70.31
1378.0,69.03
1380.0,67.76
1382.0,66.51
1384.0,65.38
1386.0,64.48
1388.0,63.8
1390.0,63.34
1392.0,63.17
1394.0,63.21
1396.0,63.37
1398.0,63.6
1400.0,63.8
1402.0,63.88
1404.0,63.72
1406.0,63.21
1408.0,62.38
1410.0,61.41
1412.0,60.67
1414.0,60.575
1416.0,61.33
1418.0,62.76
1420.0,64.55
1422.0,66.3
1424.0,67.77
1426.0,68.97
1428.0,69.9
1430.0,70.56
1432.0,71.1
1434.0,71.56
1436.0,71.99
1438.0,72.37
1440.0,72.715
1442.0,73.02
1444.0,73.3
1446.0,73.58
1448.0,73.8
1450.0,74.0
1452.0,74.19
1454.0,74.4
1456.0,74.585
1458.0,74.73
1460.0,74.835
1462.0,74.94
1464.0,75.07
1466.0,75.17
1468.0,75.3
1470.0,75.4
1472.0,75.53
1474.0,75.66
1476.0,75.85
1478.0,76.05
1480.0,76.32
1482.0,76.57
1484.0,76.775
1486.0,76.92
1488.0,77.08
1490.0,77.22
1492.0,77.35
1494.0,77.49
1496.0,77.63
1498.0,77.81
1500.0,77.98
1502.0,78.105
1504.0,78.19
1506.0,78.32
1508.0,78.46
1510.0,78.65
1512.0,78.76
1514.0,78.85
1516.0,78.89
1518.0,78.98
1520.0,79.06
1522.0,79.17
1524.0,79.28
1526.0,79.38
1528.0,79.47
1530.0,79.57
1532.0,79.66
1534.0,79.75
1536.0,79.86
1538.0,79.935
1540.0,80.02
1542.0,80.09
1544.0,80.16
1546.0,80.19
1548.0,80.24
1550.0,80.32
1552.0,80.4
1554.0,80.47
1556.0,80.52
1558.0,80.57
1560.0,80.67
1562.0,80.76
1564.0,80.82
1566.0,80.835
1568.0,80.88
1570.0,80.93
1572.0,81.01
1574.0,81.08
1576.0,81.14
1578.0,81.17
1580.0,81.19
1582.0,81.22
1584.0,81.26
1586.0,81.3
1588.0,81.35
1590.0,81.39
1592.0,81.445
1594.0,81.48
1596.0,81.51
1598.0,81.515
1600.0,81.58
1602.0,81.61
1604.0,81.62
1606.0,81.64
1608.0,81.69
1610.0,81.75
1612.0,81.78
1614.0,81.77
1616.0,81.75
1618.0,81.77
1620.0,81.82
1622.0,81.89
1624.0,81.92
1626.0,81.92
1628.0,81.93
1630.0,81.94
1632.0,81.97
1634.0,81.99
1636.0,81.99
1638.0,82.0
1640.0,82.01
1642.0,82.02
1644.0,82.03
1646.0,82.06
1648.0,82.08
1650.0,82.05
1652.0,82.04
1654.0,82.03
1656.0,82.06
1658.0,82.08
1660.0,82.05
1662.0,82.01
1664.0,82.01
1666.0,82.0
1668.0,82.0
1670.0,82.01
1672.0,82.0
1674.0,82.01
1676.0,81.98
1678.0,81.95
1680.0,81.91
1682.0,81.86
1684.0,81.81
1686.0,81.76
1688.0,81.74
1690.0,81.75
1692.0,81.75
1694.0,81.73
1696.0,81.68
1698.0,81.68
1700.0,81.65
1702.0,81.625
1704.0,81.59
1706.0,81.5
1708.0,81.48
1710.0,81.445
1712.0,81.44
1714.0,81.41
1716.0,81.38
1718.0,81.31
1720.0,81.25
1722.0,81.2
1724.0,81.14
1726.0,81.08
1728.0,81.02
1730.0,80.96
1732.0,80.905
1734.0,80.82
1736.0,80.68
1738.0,80.57
1740.0,80.5
1742.0,80.45
1744.0,80.42
1746.0,80.35
1748.0,80.25
1750.0,80.13
1752.0,80.02
1754.0,79.91
1756.0,79.81
1758.0,79.7
1760.0,79.57
1762.0,79.45
1764.0,79.36
1766.0,79.25
1768.0,79.17
1770.0,79.02
1772.0,78.89
1774.0,78.8
1776.0,78.69
1778.0,78.56
1780.0,78.39
1782.0,78.25
1784.0,78.17
1786.0,78.07
1788.0,77.925
1790.0,77.77
1792.0,77.67
1794.0,77.64
1796.0,77.58
1798.0,77.53
1800.0,77.42
1802.0,77.34
1804.0,77.3
1806.0,77.26
1808.0,77.22
1810.0,77.2
1812.0,77.135
1814.0,77.09
1816.0,77.05
1818.0,76.98
1820.0,76.93
1822.0,76.87
1824.0,76.83
1826.0,76.87
1828.0,76.9
1830.0,76.92
1832.0,76.86
1834.0,76.77
1836.0,76.7
1838.0,76.58
1840.0,76.43
1842.0,76.29
1844.0,76.2
1846.0,76.23
1848.0,76.2
1850.0,76.19
1852.0,76.165
1854.0,76.13
1856.0,76.1
1858.0,75.98
1860.0,75.83
1862.0,75.51
1864.0,75.15
1866.0,74.835
1868.0,74.45
1870.0,73.97
1872.0,73.29
1874.0,72.5
1876.0,71.745
1878.0,71.02
1880.0,70.27
1882.0,69.55
1884.0,68.8
1886.0,68.0
1888.0,67.18
1890.0,66.27
1892.0,65.31
1894.0,64.29
1896.0,63.21
1898.0,62.085
1900.0,60.98
1902.0,59.82
1904.0,58.72
1906.0,57.77
1908.0,57.03
1910.0,56.47
1912.0,56.07
1914.0,55.85
1916.0,55.83
1918.0,55.99
1920.0,56.25
1922.0,56.56
1924.0,56.93
1926.0,57.35
1928.0,57.75
1930.0,58.095
1932.0,58.35
1934.0,58.61
1936.0,58.88
1938.0,59.16
1940.0,59.35
1942.0,59.48
1944.0,59.59
1946.0,59.74
1948.0,59.94
1950.0,60.08
1952.0,60.215
1954.0,60.34
1956.0,60.5
1958.0,60.65
1960.0,60.72
1962.0,60.8
1964.0,60.9
1966.0,61.09
1968.0,61.28
1970.0,61.41
1972.0,61.545
1974.0,61.72
1976.0,61.88
1978.0,62.07
1980.0,62.23
1982.0,62.38
1984.0,62.585
1986.0,62.76
1988.0,62.94
1990.0,63.11
1992.0,63.29
1994.0,63.47
1996.0,63.69
1998.0,63.81
2000.0,63.96
2002.0,64.16
2004.0,64.36
2006.0,64.635
2008.0,64.78
2010.0,64.9
2012.0,65.03
2014.0,65.23
2016.0,65.44
2018.0,65.57
2020.0,65.67
2022.0,65.82
2024.0,66.0
2026.0,66.16
2028.0,66.26
2030.0,66.32
2032.0,66.36
2034.0,66.5
2036.0,66.62
2038.0,66.66
2040.0,66.68
2042.0,66.66
2044.0,66.78
2046.0,66.84
2048.0,66.81
2050.0,66.8
2052.0,66.75
2054.0,66.78
2056.0,66.8
2058.0,66.8
2060.0,66.75
2062.0,66.66
2064.0,66.575
2066.0,66.5
2068.0,66.465
2070.0,66.42
2072.0,66.37
2074.0,66.27
2076.0,66.17
2078.0,66.09
2080.0,65.98
2082.0,65.82
2084.0,65.66
2086.0,65.58
2088.0,65.51
2090.0,65.42
2092.0,65.29
2094.0,65.22
2096.0,65.15
2098.0,65.04
2100.0,64.88
2102.0,64.65
2104.0,64.45
2106.0,64.22
2108.0,63.98
2110.0,63.72
2112.0,63.46
2114.0,63.305
2116.0,63.19
2118.0,63.11
2120.0,62.98
2122.0,62.83
2124.0,62.69
2126.0,62.51
2128.0,62.3
2130.0,62.05
2132.0,61.71
2134.0,61.39
2136.0,60.98
2138.0,60.54
2140.0,59.96
2142.0,59.26
2144.0,58.5
2146.0,57.65
2148.0,56.72
2150.0,55.76
2152.0,54.83
2154.0,54.05
2156.0,53.29
2158.0,52.565
2160.0,51.97
2162.0,51.57
2164.0,51.34
2166.0,51.13
2168.0,50.95
2170.0,50.91
2172.0,50.98
2174.0,51.09
2176.0,51.13
2178.0,51.03
2180.0,50.94
2182.0,50.78
2184.0,50.53
2186.0,50.18
2188.0,49.72
2190.0,49.19
2192.0,48.52
2194.0,47.83
2196.0,47.11
2198.0,46.35
2200.0,45.4
2202.0,44.27
2204.0,42.98
2206.0,41.78
2208.0,41.04
2210.0,41.06
2212.0,41.89
2214.0,43.42
2216.0,45.39
2218.0,47.5
2220.0,49.33
2222.0,50.82
2224.0,51.84
2226.0,52.58
2228.0,53.19
2230.0,53.66
2232.0,53.895
2234.0,54.0
2236.0,54.06
2238.0,54.12
2240.0,54.18
2242.0,54.24
2244.0,54.43
2246.0,54.67
2248.0,54.81
2250.0,54.9
2252.0,55.01
2254.0,55.1
2256.0,55.16
2258.0,55.18
2260.0,55.115
2262.0,55.09
2264.0,55.05
2266.0,55.01
2268.0,54.98
2270.0,54.865
2272.0,54.73
2274.0,54.54
2276.0,54.35
2278.0,54.27
2280.0,54.06
2282.0,53.87
2284.0,53.63
2286.0,53.44
2288.0,53.29
2290.0,53.105
2292.0,52.88
2294.0,52.65
2296.0,52.4
2298.0,52.09
2300.0,51.76
2302.0,51.52
2304.0,51.28
2306.0,50.91
2308.0,50.49
2310.0,50.195
2312.0,50.06
2314.0,49.88
2316.0,49.76
2318.0,49.64
2320.0,49.52
2322.0,49.39
2324.0,49.27
2326.0,49.17
2328.0,49.11
2330.0,49.05
2332.0,49.03
2334.0,48.97
2336.0,48.85
2338.0,48.75
2340.0,48.56
2342.0,48.31
2344.0,48.1
2346.0,47.79
2348.0,47.5
2350.0,47.23
2352.0,47.02
2354.0,46.84
2356.0,46.61
2358.0,46.48
2360.0,46.47
2362.0,46.55
2364.0,46.52
2366.0,46.43
2368.0,46.24
2370.0,46.03
2372.0,45.76
2374.0,45.42
2376.0,45.07
2378.0,44.75
2380.0,44.44
2382.0,44.19
2384.0,44.03
2386.0,43.99
2388.0,44.0
2390.0,44.01
2392.0,44.13
2394.0,44.21
2396.0,44.22
2398.0,44.26
2400.0,44.31
2402.0,44.39
2404.0,44.39
2406.0,44.36
2408.0,44.28
2410.0,44.19
2412.0,44.14
2414.0,43.96
2416.0,43.8
2418.0,43.57
2420.0,43.37
2422.0,43.22
2424.0,42.96
2426.0,42.62
2428.0,42.4
2430.0,42.19
2432.0,41.96
2434.0,41.65
2436.0,41.4
2438.0,41.22
2440.0,40.95
2442.0,40.71
2444.0,40.53
2446.0,40.39
2448.0,40.25
2450.0,40.12
2452.0,40.02
2454.0,39.94
2456.0,39.78
2458.0,39.66
2460.0,39.5
2462.0,39.39
2464.0,39.22
2466.0,39.13
2468.0,39.02
2470.0,38.86
2472.0,38.64
2474.0,38.475
2476.0,38.34
2478.0,38.24
2480.0,38.02
2482.0,37.74
2484.0,37.47
2486.0,37.32
2488.0,37.21
2490.0,37.09
2492.0,36.93
2494.0,36.86
2496.0,36.77
2498.0,36.69
2500.0,36.52
