wavelength,reflectivity
1300.0,71.11
1302.0,70.99
1304.0,71.2
1306.0,71.11
1308.0,70.75
1310.0,70.775
1312.0,70.91
1314.0,70.85
1316.0,70.775
1318.0,70.7
1320.0,70.5
1322.0,70.43
1324.0,70.345
1326.0,70.345
1328.0,70.32
1330.0,70.25
1332.0,70.21
1334.0,70.07
1336.0,69.97
1338.0,69.86
1340.0,69.72
1342.0,69.63
1344.0,69.66
1346.0,69.75
1348.0,69.87
1350.0,69.97
1352.0,70.01
1354.0,70.02
1356.0,70.03
1358.0,70.07
1360.0,70.14
1362.0,70.19
1364.0,70.22
1366.0,70.21
1368.0,70.13
1370.0,70.07
1372.0,70.04
1374.0,70.02
1376.0,70.03
1378.0,70.03
1380.0,69.91
1382.0,69.88
1384.0,69.82
1386.0,69.75
1388.0,69.63
1390.0,69.49
1392.0,69.3
1394.0,69.1
1396.0,68.79
1398.0,68.39
1400.0,67.91
1402.0,67.39
1404.0,66.93
1406.0,66.575
1408.0,66.3
1410.0,66.035
1412.0,65.72
1414.0,65.24
1416.0,64.67
1418.0,63.99
1420.0,63.26
1422.0,62.51
1424.0,61.75
1426.0,60.99
1428.0,60.2
1430.0,59.355
1432.0,58.5
1434.0,57.53
1436.0,56.445
1438.0,55.13
1440.0,53.62
1442.0,52.13
1444.0,51.0
1446.0,50.55
1448.0,50.91
1450.0,51.98
1452.0,53.49
1454.0,55.09
1456.0,56.57
1458.0,57.83
1460.0,58.89
1462.0,59.76
1464.0,60.49
1466.0,61.06
1468.0,61.545
1470.0,61.89
1472.0,62.19
1474.0,62.42
1476.0,62.58
1478.0,62.69
1480.0,62.78
1482.0,62.84
1484.0,62.92
1486.0,62.99
1488.0,63.03
1490.0,63.03
1492.0,63.02
1494.0,63.01
1496.0,62.99
1498.0,62.93
1500.0,62.9
1502.0,62.85
1504.0,62.8
1506.0,62.765
1508.0,62.73
1510.0,62.67
1512.0,62.62
1514.0,62.54
1516.0,62.43
1518.0,62.335
1520.0,62.25
1522.0,62.2
1524.0,62.25
1526.0,62.4
1528.0,62.63
1530.0,62.945
1532.0,63.28
1534.0,63.61
1536.0,63.915
1538.0,64.15
1540.0,64.34
1542.0,64.525
1544.0,64.7
1546.0,64.85
1548.0,64.98
1550.0,65.06
1552.0,65.11
1554.0,65.14
1556.0,65.19
1558.0,65.23
1560.0,65.29
1562.0,65.27
1564.0,65.24
1566.0,65.22
1568.0,65.22
1570.0,65.21
1572.0,65.19
1574.0,65.12
1576.0,65.065
1578.0,65.01
1580.0,64.94
1582.0,64.87
1584.0,64.77
1586.0,64.66
1588.0,64.54
1590.0,64.42
1592.0,64.31
1594.0,64.23
1596.0,64.11
1598.0,63.97
1600.0,63.81
1602.0,63.665
1604.0,63.57
1606.0,63.45
1608.0,63.305
1610.0,63.12
1612.0,62.945
1614.0,62.82
1616.0,62.695
1618.0,62.57
1620.0,62.42
1622.0,62.25
1624.0,62.07
1626.0,61.905
1628.0,61.75
1630.0,61.58
1632.0,61.42
1634.0,61.21
1636.0,61.03
1638.0,60.86
1640.0,60.7
1642.0,60.55
1644.0,60.38
1646.0,60.21
1648.0,60.07
1650.0,59.93
1652.0,59.8
1654.0,59.66
1656.0,59.5
1658.0,59.35
1660.0,59.16
1662.0,58.995
1664.0,58.89
1666.0,58.72
1668.0,58.54
1670.0,58.38
1672.0,58.23
1674.0,58.14
1676.0,58.025
1678.0,57.88
1680.0,57.73
1682.0,57.58
1684.0,57.415
1686.0,57.27
1688.0,57.14
1690.0,56.96
1692.0,56.79
1694.0,56.61
1696.0,56.39
1698.0,56.17
1700.0,55.97
1702.0,55.79
1704.0,55.6
1706.0,55.42
1708.0,55.22
1710.0,55.05
1712.0,54.89
1714.0,54.72
1716.0,54.56
1718.0,54.42
1720.0,54.32
1722.0,54.2
1724.0,54.1
1726.0,54.05
1728.0,54.0
1730.0,53.94
1732.0,53.88
1734.0,53.8
1736.0,53.74
1738.0,53.69
1740.0,53.64
1742.0,53.55
1744.0,53.42
1746.0,53.33
1748.0,53.23
1750.0,53.16
1752.0,53.14
1754.0,53.07
1756.0,53.03
1758.0,52.97
1760.0,52.92
1762.0,52.88
1764.0,52.81
1766.0,52.78
1768.0,52.73
1770.0,52.69
1772.0,52.63
1774.0,52.59
1776.0,52.56
1778.0,52.55
1780.0,52.51
1782.0,52.47
1784.0,52.45
1786.0,52.44
1788.0,52.41
1790.0,52.385
1792.0,52.35
1794.0,52.315
1796.0,52.31
1798.0,52.28
1800.0,52.28
1802.0,52.27
1804.0,52.24
1806.0,52.23
1808.0,52.205
1810.0,52.2
1812.0,52.23
1814.0,52.205
1816.0,52.2
1818.0,52.22
1820.0,52.26
1822.0,52.28
1824.0,52.26
1826.0,52.205
1828.0,52.19
1830.0,52.23
1832.0,52.26
1834.0,52.27
1836.0,52.24
1838.0,52.22
1840.0,52.22
1842.0,52.18
1844.0,52.15
1846.0,52.08
1848.0,51.98
1850.0,51.88
1852.0,51.79
1854.0,51.68
1856.0,51.55
1858.0,51.38
1860.0,51.19
1862.0,51.02
1864.0,50.8
1866.0,50.54
1868.0,50.24
1870.0,49.98
1872.0,49.74
1874.0,49.49
1876.0,49.22
1878.0,48.92
1880.0,48.57
1882.0,48.1
1884.0,47.55
1886.0,46.93
1888.0,46.15
1890.0,45.23
1892.0,44.03
1894.0,42.59
1896.0,40.845
1898.0,38.84
1900.0,36.67
1902.0,34.45
1904.0,32.29
1906.0,30.25
1908.0,28.36
1910.0,26.75
1912.0,25.615
1914.0,25.22
1916.0,25.74
1918.0,27.06
1920.0,28.95
1922.0,31.1
1924.0,33.16
1926.0,34.99
1928.0,36.55
1930.0,37.96
1932.0,39.21
1934.0,40.29
1936.0,41.16
1938.0,41.86
1940.0,42.5
1942.0,43.08
1944.0,43.6
1946.0,44.04
1948.0,44.36
1950.0,44.61
1952.0,44.81
1954.0,44.92
1956.0,45.02
1958.0,45.13
1960.0,45.26
1962.0,45.36
1964.0,45.37
1966.0,45.36
1968.0,45.37
1970.0,45.41
1972.0,45.45
1974.0,45.42
1976.0,45.36
1978.0,45.29
1980.0,45.26
1982.0,45.27
1984.0,45.26
1986.0,45.22
1988.0,45.16
1990.0,45.13
1992.0,45.11
1994.0,45.09
1996.0,45.07
1998.0,45.08
2000.0,45.11
2002.0,45.12
2004.0,45.13
2006.0,45.17
2008.0,45.21
2010.0,45.25
2012.0,45.27
2014.0,45.32
2016.0,45.38
2018.0,45.43
2020.0,45.45
2022.0,45.47
2024.0,45.48
2026.0,45.52
2028.0,45.53
2030.0,45.57
2032.0,45.63
2034.0,45.63
2036.0,45.58
2038.0,45.53
2040.0,45.51
2042.0,45.53
2044.0,45.56
2046.0,45.54
2048.0,45.52
2050.0,45.49
2052.0,45.48
2054.0,45.51
2056.0,45.54
2058.0,45.49
2060.0,45.45
2062.0,45.42
2064.0,45.46
2066.0,45.54
2068.0,45.6
2070.0,45.63
2072.0,45.65
2074.0,45.69
2076.0,45.71
2078.0,45.75
2080.0,45.8
2082.0,45.87
2084.0,45.91
2086.0,45.91
2088.0,45.89
2090.0,45.87
2092.0,45.84
2094.0,45.77
2096.0,45.68
2098.0,45.59
2100.0,45.47
2102.0,45.33
2104.0,45.18
2106.0,45.0
2108.0,44.87
2110.0,44.74
2112.0,44.59
2114.0,44.4
2116.0,44.18
2118.0,44.04
2120.0,43.9
2122.0,43.75
2124.0,43.59
2126.0,43.48
2128.0,43.38
2130.0,43.29
2132.0,43.18
2134.0,43.07
2136.0,43.02
2138.0,42.92
2140.0,42.84
2142.0,42.8
2144.0,42.79
2146.0,42.85
2148.0,42.95
2150.0,43.09
2152.0,43.28
2154.0,43.39
2156.0,43.47
2158.0,43.56
2160.0,43.63
2162.0,43.74
2164.0,43.83
2166.0,43.94
2168.0,44.08
2170.0,44.21
2172.0,44.32
2174.0,44.42
2176.0,44.51
2178.0,44.63
2180.0,44.69
2182.0,44.73
2184.0,44.77
2186.0,44.79
2188.0,44.8
2190.0,44.81
2192.0,44.81
2194.0,44.87
2196.0,44.98
2198.0,45.07
2200.0,45.14
2202.0,45.14
2204.0,45.21
2206.0,45.34
2208.0,45.48
2210.0,45.63
2212.0,45.79
2214.0,45.93
2216.0,46.0
2218.0,46.06
2220.0,46.19
2222.0,46.35
2224.0,46.51
2226.0,46.57
2228.0,46.62
2230.0,46.73
2232.0,46.82
2234.0,46.87
2236.0,46.88
2238.0,46.96
2240.0,47.09
2242.0,47.2
2244.0,47.22
2246.0,47.26
2248.0,47.34
2250.0,47.33
2252.0,47.29
2254.0,47.29
2256.0,47.39
2258.0,47.38
2260.0,47.36
2262.0,47.37
2264.0,47.4
2266.0,47.42
2268.0,47.3
2270.0,47.22
2272.0,47.12
2274.0,47.11
2276.0,47.12
2278.0,47.08
2280.0,46.99
2282.0,46.88
2284.0,46.82
2286.0,46.69
2288.0,46.49
2290.0,46.28
2292.0,46.02
2294.0,45.81
2296.0,45.52
2298.0,45.26
2300.0,45.11
2302.0,45.0
2304.0,44.93
2306.0,44.95
2308.0,45.03
2310.0,45.18
2312.0,45.37
2314.0,45.52
2316.0,45.64
2318.0,45.71
2320.0,45.75
2322.0,45.76
2324.0,45.72
2326.0,45.63
2328.0,45.59
2330.0,45.57
2332.0,45.45
2334.0,45.31
2336.0,45.15
2338.0,44.97
2340.0,44.75
2342.0,44.54
2344.0,44.24
2346.0,43.81
2348.0,43.35
2350.0,42.89
2352.0,42.31
2354.0,41.62
2356.0,40.89
2358.0,40.02
2360.0,39.08
2362.0,38.05
2364.0,37.02
2366.0,35.98
2368.0,34.9
2370.0,33.71
2372.0,32.48
2374.0,31.3
2376.0,30.26
2378.0,29.315
2380.0,28.51
2382.0,27.81
2384.0,27.21
2386.0,26.65
2388.0,26.11
2390.0,25.72
2392.0,25.44
2394.0,25.2
2396.0,24.98
2398.0,24.8
2400.0,24.76
2402.0,24.75
2404.0,24.72
2406.0,24.58
2408.0,24.56
2410.0,24.65
2412.0,24.82
2414.0,24.9
2416.0,25.11
2418.0,25.48
2420.0,26.0
2422.0,26.6
2424.0,27.27
2426.0,27.95
2428.0,28.63
2430.0,29.29
2432.0,29.75
2434.0,29.98
2436.0,29.91
2438.0,29.56
2440.0,29.0
2442.0,28.42
2444.0,27.84
2446.0,27.34
2448.0,26.84
2450.0,26.42
2452.0,26.19
2454.0,25.97
2456.0,25.75
2458.0,25.54
2460.0,25.41
2462.0,25.34
2464.0,25.37
2466.0,25.525
2468.0,25.72
2470.0,25.84
2472.0,26.02
2474.0,26.32
2476.0,26.76
2478.0,27.27
2480.0,27.71
2482.0,28.14
2484.0,28.525
2486.0,28.96
2488.0,29.42
2490.0,29.88
2492.0,30.13
2494.0,30.24
2496.0,30.285
2498.0,30.31
2500.0,30.23
