wavelength,reflectivity
1300.0,65.17
1302.0,65.27
1304.0,65.44
1306.0,65.41
1308.0,65.53
1310.0,65.87
1312.0,66.15
1314.0,66.36
1316.0,66.6
1318.0,66.7
1320.0,66.93
1322.0,67.2
1324.0,67.35
1326.0,67.49
1328.0,67.73
1330.0,67.85
1332.0,68.01
1334.0,68.21
1336.0,68.29
1338.0,68.25
1340.0,68.335
1342.0,68.49
1344.0,68.66
1346.0,68.85
1348.0,68.96
1350.0,69.01
1352.0,69.09
1354.0,69.19
1356.0,69.35
1358.0,69.51
1360.0,69.72
1362.0,69.86
1364.0,69.94
1366.0,70.07
1368.0,70.24
1370.0,70.41
1372.0,70.56
1374.0,70.64
1376.0,70.73
1378.0,70.88
1380.0,71.02
1382.0,71.15
1384.0,71.26
1386.0,71.36
1388.0,71.52
1390.0,71.7
1392.0,71.89
1394.0,72.07
1396.0,72.24
1398.0,72.355
1400.0,72.48
1402.0,72.56
1404.0,72.67
1406.0,72.77
1408.0,72.895
1410.0,73.0
1412.0,73.11
1414.0,73.22
1416.0,73.31
1418.0,73.41
1420.0,73.52
1422.0,73.59
1424.0,73.66
1426.0,73.68
1428.0,73.685
1430.0,73.685
1432.0,73.68
1434.0,73.66
1436.0,73.68
1438.0,73.68
1440.0,73.71
1442.0,73.6
1444.0,73.47
1446.0,73.27
1448.0,73.075
1450.0,72.87
1452.0,72.6
1454.0,72.19
1456.0,71.675
1458.0,71.03
1460.0,70.31
1462.0,69.55
1464.0,68.76
1466.0,67.95
1468.0,67.1
1470.0,66.23
1472.0,65.29
1474.0,64.41
1476.0,63.77
1478.0,63.44
1480.0,63.55
1482.0,64.19
1484.0,65.19
1486.0,66.44
1488.0,67.74
1490.0,68.89
1492.0,69.805
1494.0,70.49
1496.0,70.92
1498.0,71.16
1500.0,71.33
1502.0,71.43
1504.0,71.54
1506.0,71.64
1508.0,71.67
1510.0,71.66
1512.0,71.64
1514.0,71.62
1516.0,71.565
1518.0,71.49
1520.0,71.39
1522.0,71.3
1524.0,71.19
1526.0,71.1
1528.0,71.02
1530.0,70.94
1532.0,70.885
1534.0,70.84
1536.0,70.775
1538.0,70.73
1540.0,70.73
1542.0,70.72
1544.0,70.7
1546.0,70.7
1548.0,70.73
1550.0,70.775
1552.0,70.85
1554.0,70.93
1556.0,71.06
1558.0,71.22
1560.0,71.42
1562.0,71.63
1564.0,71.8
1566.0,71.98
1568.0,72.09
1570.0,72.21
1572.0,72.4
1574.0,72.59
1576.0,72.79
1578.0,72.96
1580.0,73.14
1582.0,73.36
1584.0,73.56
1586.0,73.74
1588.0,73.88
1590.0,74.03
1592.0,74.18
1594.0,74.34
1596.0,74.475
1598.0,74.62
1600.0,74.77
1602.0,74.91
1604.0,75.01
1606.0,75.15
1608.0,75.31
1610.0,75.48
1612.0,75.65
1614.0,75.75
1616.0,75.83
1618.0,75.96
1620.0,76.08
1622.0,76.21
1624.0,76.32
1626.0,76.39
1628.0,76.5
1630.0,76.64
1632.0,76.76
1634.0,76.88
1636.0,76.955
1638.0,77.04
1640.0,77.13
1642.0,77.24
1644.0,77.33
1646.0,77.43
1648.0,77.53
1650.0,77.63
1652.0,77.7
1654.0,77.78
1656.0,77.815
1658.0,77.9
1660.0,77.995
1662.0,78.1
1664.0,78.22
1666.0,78.28
1668.0,78.35
1670.0,78.38
1672.0,78.44
1674.0,78.53
1676.0,78.62
1678.0,78.71
1680.0,78.81
1682.0,78.895
1684.0,78.95
1686.0,78.98
1688.0,79.04
1690.0,79.12
1692.0,79.2
1694.0,79.31
1696.0,79.34
1698.0,79.37
1700.0,79.4
1702.0,79.47
1704.0,79.55
1706.0,79.6
1708.0,79.66
1710.0,79.66
1712.0,79.68
1714.0,79.685
1716.0,79.73
1718.0,79.79
1720.0,79.84
1722.0,79.86
1724.0,79.85
1726.0,79.82
1728.0,79.82
1730.0,79.83
1732.0,79.83
1734.0,79.83
1736.0,79.81
1738.0,79.73
1740.0,79.66
1742.0,79.61
1744.0,79.56
1746.0,79.505
1748.0,79.4
1750.0,79.32
1752.0,79.25
1754.0,79.17
1756.0,79.1
1758.0,78.99
1760.0,78.88
1762.0,78.76
1764.0,78.66
1766.0,78.58
1768.0,78.51
1770.0,78.45
1772.0,78.38
1774.0,78.31
1776.0,78.23
1778.0,78.15
1780.0,78.08
1782.0,77.995
1784.0,77.92
1786.0,77.84
1788.0,77.745
1790.0,77.67
1792.0,77.55
1794.0,77.43
1796.0,77.29
1798.0,77.1
1800.0,76.845
1802.0,76.58
1804.0,76.33
1806.0,76.09
1808.0,75.78
1810.0,75.42
1812.0,75.03
1814.0,74.63
1816.0,74.28
1818.0,73.9
1820.0,73.54
1822.0,73.15
1824.0,72.7
1826.0,72.15
1828.0,71.4
1830.0,70.48
1832.0,69.4
1834.0,68.22
1836.0,67.02
1838.0,65.78
1840.0,64.63
1842.0,63.66
1844.0,63.02
1846.0,62.84
1848.0,63.01
1850.0,63.39
1852.0,63.8
1854.0,64.18
1856.0,64.51
1858.0,64.73
1860.0,65.02
1862.0,65.46
1864.0,66.105
1866.0,67.0
1868.0,68.0
1870.0,69.11
1872.0,70.3
1874.0,71.46
1876.0,72.52
1878.0,73.35
1880.0,74.0
1882.0,74.5
1884.0,74.85
1886.0,75.14
1888.0,75.36
1890.0,75.51
1892.0,75.6
1894.0,75.58
1896.0,75.58
1898.0,75.58
1900.0,75.55
1902.0,75.48
1904.0,75.36
1906.0,75.29
1908.0,75.3
1910.0,75.28
1912.0,75.195
1914.0,75.06
1916.0,74.89
1918.0,74.83
1920.0,74.79
1922.0,74.75
1924.0,74.655
1926.0,74.53
1928.0,74.4
1930.0,74.22
1932.0,74.13
1934.0,74.08
1936.0,74.01
1938.0,73.92
1940.0,73.83
1942.0,73.81
1944.0,73.82
1946.0,73.79
1948.0,73.76
1950.0,73.72
1952.0,73.64
1954.0,73.58
1956.0,73.54
1958.0,73.48
1960.0,73.41
1962.0,73.31
1964.0,73.27
1966.0,73.23
1968.0,73.2
1970.0,73.19
1972.0,73.17
1974.0,73.15
1976.0,73.15
1978.0,73.16
1980.0,73.18
1982.0,73.15
1984.0,73.1
1986.0,73.05
1988.0,73.03
1990.0,72.94
1992.0,72.84
1994.0,72.77
1996.0,72.67
1998.0,72.59
2000.0,72.45
2002.0,72.3
2004.0,72.14
2006.0,72.03
2008.0,71.98
2010.0,71.9
2012.0,71.85
2014.0,71.77
2016.0,71.73
2018.0,71.65
2020.0,71.52
2022.0,71.37
2024.0,71.2
2026.0,71.0
2028.0,70.8
2030.0,70.66
2032.0,70.46
2034.0,70.23
2036.0,69.97
2038.0,69.69
2040.0,69.46
2042.0,69.19
2044.0,68.96
2046.0,68.81
2048.0,68.69
2050.0,68.57
2052.0,68.35
2054.0,68.13
2056.0,67.95
2058.0,67.85
2060.0,67.77
2062.0,67.67
2064.0,67.55
2066.0,67.41
2068.0,67.28
2070.0,67.185
2072.0,67.11
2074.0,67.03
2076.0,66.95
2078.0,66.825
2080.0,66.74
2082.0,66.64
2084.0,66.53
2086.0,66.465
2088.0,66.44
2090.0,66.395
2092.0,66.33
2094.0,66.24
2096.0,66.105
2098.0,66.03
2100.0,65.94
2102.0,65.88
2104.0,65.8
2106.0,65.71
2108.0,65.58
2110.0,65.37
2112.0,65.19
2114.0,64.99
2116.0,64.9
2118.0,64.76
2120.0,64.635
2122.0,64.51
2124.0,64.29
2126.0,64.14
2128.0,64.0
2130.0,63.87
2132.0,63.69
2134.0,63.485
2136.0,63.35
2138.0,63.17
2140.0,62.96
2142.0,62.75
2144.0,62.58
2146.0,62.45
2148.0,62.26
2150.0,62.085
2152.0,61.9
2154.0,61.76
2156.0,61.615
2158.0,61.53
2160.0,61.4
2162.0,61.23
2164.0,61.07
2166.0,60.96
2168.0,60.82
2170.0,60.67
2172.0,60.53
2174.0,60.41
2176.0,60.31
2178.0,60.13
2180.0,59.94
2182.0,59.66
2184.0,59.39
2186.0,59.12
2188.0,58.88
2190.0,58.62
2192.0,58.34
2194.0,58.05
2196.0,57.72
2198.0,57.43
2200.0,57.19
2202.0,56.91
2204.0,56.6
2206.0,56.26
2208.0,55.92
2210.0,55.56
2212.0,55.18
2214.0,54.84
2216.0,54.5
2218.0,54.1
2220.0,53.76
2222.0,53.39
2224.0,53.13
2226.0,52.925
2228.0,52.71
2230.0,52.56
2232.0,52.33
2234.0,52.2
2236.0,52.08
2238.0,51.99
2240.0,51.88
2242.0,51.8
2244.0,51.595
2246.0,51.32
2248.0,50.9
2250.0,50.47
2252.0,49.92
2254.0,49.14
2256.0,48.25
2258.0,47.29
2260.0,46.62
2262.0,45.97
2264.0,45.46
2266.0,45.16
2268.0,45.05
2270.0,45.2
2272.0,45.4
2274.0,45.76
2276.0,46.17
2278.0,46.73
2280.0,47.43
2282.0,48.38
2284.0,49.35
2286.0,50.4
2288.0,51.39
2290.0,52.38
2292.0,53.29
2294.0,53.91
2296.0,54.26
2298.0,54.36
2300.0,54.41
2302.0,54.37
2304.0,54.36
2306.0,54.53
2308.0,54.97
2310.0,55.7
2312.0,56.57
2314.0,57.52
2316.0,58.4
2318.0,59.13
2320.0,59.7
2322.0,60.17
2324.0,60.57
2326.0,60.78
2328.0,60.99
2330.0,61.2
2332.0,61.46
2334.0,61.68
2336.0,61.72
2338.0,61.69
2340.0,61.66
2342.0,61.7
2344.0,61.67
2346.0,61.54
2348.0,61.48
2350.0,61.34
2352.0,61.24
2354.0,61.08
2356.0,60.86
2358.0,60.57
2360.0,60.23
2362.0,60.0
2364.0,59.67
2366.0,59.35
2368.0,58.96
2370.0,58.48
2372.0,57.97
2374.0,57.48
2376.0,57.11
2378.0,56.62
2380.0,56.07
2382.0,55.46
2384.0,54.84
2386.0,54.23
2388.0,53.55
2390.0,52.87
2392.0,52.13
2394.0,51.43
2396.0,50.73
2398.0,49.97
2400.0,49.39
2402.0,48.89
2404.0,48.44
2406.0,47.91
2408.0,47.58
2410.0,47.33
2412.0,47.18
2414.0,47.05
2416.0,46.96
2418.0,46.91
2420.0,46.85
2422.0,46.88
2424.0,46.99
2426.0,47.1
2428.0,47.11
2430.0,47.17
2432.0,47.23
2434.0,47.38
2436.0,47.31
2438.0,47.21
2440.0,46.98
2442.0,46.83
2444.0,46.55
2446.0,46.13
2448.0,45.62
2450.0,45.16
2452.0,44.7
2454.0,44.24
2456.0,43.81
2458.0,43.47
2460.0,43.22
2462.0,43.0
2464.0,42.95
2466.0,43.04
2468.0,43.26
2470.0,43.43
2472.0,43.6
2474.0,43.8
2476.0,43.99
2478.0,44.15
2480.0,44.21
2482.0,44.31
2484.0,44.3
2486.0,44.27
2488.0,44.18
2490.0,44.21
2492.0,44.17
2494.0,44.05
2496.0,43.71
2498.0,43.3
2500.0,42.74
