wavelength,reflectivity
1300.0,71.94
1302.0,71.89
1304.0,71.71
1306.0,71.42
1308.0,71.34
1310.0,70.97
1312.0,70.885
1314.0,70.77
1316.0,70.68
1318.0,70.7
1320.0,70.66
1322.0,70.47
1324.0,70.28
1326.0,70.0
1328.0,69.85
1330.0,69.8
1332.0,69.805
1334.0,69.79
1336.0,69.73
1338.0,69.67
1340.0,69.51
1342.0,69.3
1344.0,68.99
1346.0,68.51
1348.0,67.94
1350.0,67.35
1352.0,66.8
1354.0,66.41
1356.0,66.215
1358.0,66.16
1360.0,66.12
1362.0,66.0
1364.0,65.8
1366.0,65.49
1368.0,65.065
1370.0,64.47
1372.0,63.69
1374.0,62.79
1376.0,61.78
1378.0,60.78
1380.0,59.78
1382.0,58.81
1384.0,57.83
1386.0,56.87
1388.0,56.01
1390.0,55.4
1392.0,55.11
1394.0,55.13
1396.0,55.35
1398.0,55.67
1400.0,55.99
1402.0,56.25
1404.0,56.33
1406.0,55.97
1408.0,54.95
1410.0,53.35
1412.0,51.8
1414.0,51.2
1416.0,52.19
1418.0,54.64
1420.0,57.81
1422.0,60.77
1424.0,63.02
1426.0,64.5
1428.0,65.56
1430.0,66.395
1432.0,67.14
1434.0,67.74
1436.0,68.21
1438.0,68.58
1440.0,68.9
1442.0,69.18
1444.0,69.42
1446.0,69.64
1448.0,69.82
1450.0,69.95
1452.0,70.07
1454.0,70.19
1456.0,70.32
1458.0,70.47
1460.0,70.59
1462.0,70.73
1464.0,70.885
1466.0,71.04
1468.0,71.16
1470.0,71.27
1472.0,71.34
1474.0,71.45
1476.0,71.565
1478.0,71.66
1480.0,71.74
1482.0,71.83
1484.0,71.9
1486.0,71.96
1488.0,72.04
1490.0,72.12
1492.0,72.19
1494.0,72.24
1496.0,72.26
1498.0,72.24
1500.0,72.25
1502.0,72.285
1504.0,72.355
1506.0,72.52
1508.0,72.69
1510.0,72.81
1512.0,72.92
1514.0,73.01
1516.0,73.09
1518.0,73.17
1520.0,73.25
1522.0,73.3
1524.0,73.37
1526.0,73.435
1528.0,73.48
1530.0,73.52
1532.0,73.57
1534.0,73.59
1536.0,73.58
1538.0,73.615
1540.0,73.65
1542.0,73.7
1544.0,73.76
1546.0,73.8
1548.0,73.81
1550.0,73.8
1552.0,73.78
1554.0,73.78
1556.0,73.81
1558.0,73.84
1560.0,73.865
1562.0,73.93
1564.0,73.98
1566.0,74.03
1568.0,74.08
1570.0,74.09
1572.0,74.09
1574.0,74.07
1576.0,74.02
1578.0,74.01
1580.0,74.045
1582.0,74.09
1584.0,74.11
1586.0,74.115
1588.0,74.18
1590.0,74.24
1592.0,74.27
1594.0,74.27
1596.0,74.27
1598.0,74.25
1600.0,74.26
1602.0,74.27
1604.0,74.27
1606.0,74.27
1608.0,74.27
1610.0,74.26
1612.0,74.27
1614.0,74.295
1616.0,74.29
1618.0,74.28
1620.0,74.29
1622.0,74.27
1624.0,74.24
1626.0,74.21
1628.0,74.21
1630.0,74.24
1632.0,74.25
1634.0,74.22
1636.0,74.18
1638.0,74.17
1640.0,74.18
1642.0,74.19
1644.0,74.16
1646.0,74.1
1648.0,74.08
1650.0,74.08
1652.0,74.09
1654.0,74.09
1656.0,74.03
1658.0,73.98
1660.0,73.91
1662.0,73.84
1664.0,73.79
1666.0,73.78
1668.0,73.73
1670.0,73.7
1672.0,73.66
1674.0,73.615
1676.0,73.61
1678.0,73.59
1680.0,73.59
1682.0,73.61
1684.0,73.61
1686.0,73.59
1688.0,73.57
1690.0,73.54
1692.0,73.52
1694.0,73.52
1696.0,73.54
1698.0,73.54
1700.0,73.56
1702.0,73.5
1704.0,73.43
1706.0,73.36
1708.0,73.3
1710.0,73.3
1712.0,73.28
1714.0,73.24
1716.0,73.16
1718.0,73.07
1720.0,73.03
1722.0,73.03
1724.0,73.06
1726.0,73.1
1728.0,73.06
1730.0,72.98
1732.0,72.89
1734.0,72.84
1736.0,72.8
1738.0,72.74
1740.0,72.67
1742.0,72.62
1744.0,72.6
1746.0,72.535
1748.0,72.52
1750.0,72.465
1752.0,72.44
1754.0,72.41
1756.0,72.355
1758.0,72.34
1760.0,72.28
1762.0,72.19
1764.0,72.1
1766.0,72.04
1768.0,71.98
1770.0,71.88
1772.0,71.745
1774.0,71.63
1776.0,71.53
1778.0,71.42
1780.0,71.31
1782.0,71.18
1784.0,71.06
1786.0,70.93
1788.0,70.76
1790.0,70.59
1792.0,70.42
1794.0,70.27
1796.0,70.16
1798.0,70.09
1800.0,70.05
1802.0,70.02
1804.0,69.985
1806.0,69.95
1808.0,69.9
1810.0,69.8
1812.0,69.69
1814.0,69.61
1816.0,69.53
1818.0,69.45
1820.0,69.39
1822.0,69.39
1824.0,69.46
1826.0,69.48
1828.0,69.53
1830.0,69.55
1832.0,69.54
1834.0,69.44
1836.0,69.26
1838.0,69.08
1840.0,68.97
1842.0,69.01
1844.0,69.18
1846.0,69.42
1848.0,69.63
1850.0,69.78
1852.0,69.83
1854.0,69.82
1856.0,69.76
1858.0,69.65
1860.0,69.49
1862.0,69.33
1864.0,69.11
1866.0,68.83
1868.0,68.45
1870.0,67.95
1872.0,67.42
1874.0,66.9
1876.0,66.42
1878.0,66.07
1880.0,65.83
1882.0,65.63
1884.0,65.44
1886.0,65.21
1888.0,64.93
1890.0,64.61
1892.0,64.22
1894.0,63.82
1896.0,63.44
1898.0,63.04
1900.0,62.63
1902.0,62.21
1904.0,61.84
1906.0,61.52
1908.0,61.28
1910.0,61.13
1912.0,61.02
1914.0,60.98
1916.0,60.96
1918.0,60.99
1920.0,61.03
1922.0,61.08
1924.0,61.115
1926.0,61.22
1928.0,61.28
1930.0,61.29
1932.0,61.33
1934.0,61.38
1936.0,61.47
1938.0,61.53
1940.0,61.545
1942.0,61.53
1944.0,61.57
1946.0,61.64
1948.0,61.7
1950.0,61.77
1952.0,61.79
1954.0,61.88
1956.0,61.99
1958.0,62.07
1960.0,62.155
1962.0,62.22
1964.0,62.28
1966.0,62.32
1968.0,62.32
1970.0,62.35
1972.0,62.44
1974.0,62.49
1976.0,62.57
1978.0,62.63
1980.0,62.67
1982.0,62.72
1984.0,62.78
1986.0,62.87
1988.0,62.91
1990.0,62.945
1992.0,62.98
1994.0,63.03
1996.0,63.1
1998.0,63.07
2000.0,63.07
2002.0,63.07
2004.0,63.12
2006.0,63.21
2008.0,63.22
2010.0,63.23
2012.0,63.2
2014.0,63.22
2016.0,63.27
2018.0,63.23
2020.0,63.21
2022.0,63.16
2024.0,63.15
2026.0,63.14
2028.0,63.07
2030.0,63.01
2032.0,62.93
2034.0,62.89
2036.0,62.89
2038.0,62.92
2040.0,62.875
2042.0,62.83
2044.0,62.72
2046.0,62.585
2048.0,62.5
2050.0,62.35
2052.0,62.3
2054.0,62.21
2056.0,62.11
2058.0,61.99
2060.0,61.85
2062.0,61.71
2064.0,61.52
2066.0,61.31
2068.0,61.11
2070.0,60.93
2072.0,60.755
2074.0,60.6
2076.0,60.43
2078.0,60.24
2080.0,60.0
2082.0,59.77
2084.0,59.55
2086.0,59.4
2088.0,59.26
2090.0,59.17
2092.0,59.05
2094.0,58.92
2096.0,58.815
2098.0,58.65
2100.0,58.47
2102.0,58.19
2104.0,57.78
2106.0,57.32
2108.0,56.84
2110.0,56.49
2112.0,56.31
2114.0,56.22
2116.0,56.2
2118.0,56.14
2120.0,56.03
2122.0,55.89
2124.0,55.725
2126.0,55.475
2128.0,55.2
2130.0,54.81
2132.0,54.35
2134.0,53.89
2136.0,53.32
2138.0,52.7
2140.0,51.95
2142.0,51.09
2144.0,50.19
2146.0,49.15
2148.0,48.04
2150.0,46.86
2152.0,45.7
2154.0,44.65
2156.0,43.71
2158.0,42.9
2160.0,42.24
2162.0,41.76
2164.0,41.4
2166.0,41.16
2168.0,40.98
2170.0,40.91
2172.0,40.88
2174.0,40.89
2176.0,40.9
2178.0,40.89
2180.0,40.845
2182.0,40.8
2184.0,40.74
2186.0,40.68
2188.0,40.58
2190.0,40.41
2192.0,40.145
2194.0,39.785
2196.0,39.42
2198.0,39.08
2200.0,38.72
2202.0,38.15
2204.0,37.13
2206.0,35.58
2208.0,33.61
2210.0,31.95
2212.0,31.51
2214.0,32.79
2216.0,35.6
2218.0,38.83
2220.0,41.65
2222.0,43.8
2224.0,45.3
2226.0,46.4
2228.0,47.17
2230.0,47.67
2232.0,47.93
2234.0,48.0
2236.0,47.95
2238.0,47.81
2240.0,47.73
2242.0,47.75
2244.0,47.88
2246.0,48.09
2248.0,48.21
2250.0,48.27
2252.0,48.2
2254.0,48.09
2256.0,47.96
2258.0,47.84
2260.0,47.73
2262.0,47.63
2264.0,47.53
2266.0,47.36
2268.0,47.13
2270.0,46.9
2272.0,46.68
2274.0,46.46
2276.0,46.2
2278.0,45.93
2280.0,45.67
2282.0,45.41
2284.0,45.16
2286.0,44.91
2288.0,44.66
2290.0,44.44
2292.0,44.21
2294.0,43.96
2296.0,43.68
2298.0,43.39
2300.0,43.09
2302.0,42.79
2304.0,42.46
2306.0,42.12
2308.0,41.82
2310.0,41.63
2312.0,41.52
2314.0,41.45
2316.0,41.31
2318.0,41.18
2320.0,41.08
2322.0,41.05
2324.0,40.98
2326.0,41.0
2328.0,41.09
2330.0,41.19
2332.0,41.29
2334.0,41.29
2336.0,41.24
2338.0,41.09
2340.0,40.88
2342.0,40.65
2344.0,40.325
2346.0,40.02
2348.0,39.66
2350.0,39.3
2352.0,38.92
2354.0,38.71
2356.0,38.54
2358.0,38.42
2360.0,38.32
2362.0,38.32
2364.0,38.42
2366.0,38.475
2368.0,38.47
2370.0,38.34
2372.0,38.11
2374.0,37.82
2376.0,37.46
2378.0,37.055
2380.0,36.69
2382.0,36.32
2384.0,36.04
2386.0,35.86
2388.0,35.835
2390.0,35.94
2392.0,36.12
2394.0,36.355
2396.0,36.59
2398.0,36.86
2400.0,37.16
2402.0,37.48
2404.0,37.72
2406.0,37.74
2408.0,37.74
2410.0,37.73
2412.0,37.685
2414.0,37.58
2416.0,37.41
2418.0,37.26
2420.0,37.05
2422.0,36.85
2424.0,36.62
2426.0,36.33
2428.0,36.0
2430.0,35.655
2432.0,35.26
2434.0,34.71
2436.0,34.24
2438.0,33.83
2440.0,33.48
2442.0,33.14
2444.0,32.85
2446.0,32.59
2448.0,32.42
2450.0,32.36
2452.0,32.28
2454.0,32.07
2456.0,31.84
2458.0,31.68
2460.0,31.62
2462.0,31.54
2464.0,31.39
2466.0,31.21
2468.0,31.09
2470.0,30.91
2472.0,30.69
2474.0,30.465
2476.0,30.17
2478.0,29.91
2480.0,29.62
2482.0,29.35
2484.0,29.135
2486.0,28.98
2488.0,28.86
2490.0,28.7
2492.0,28.65
2494.0,28.57
2496.0,28.54
2498.0,28.45
2500.0,28.34
