wavelength,reflectivity
1300.0,76.59
1302.0,76.64
1304.0,76.775
1306.0,76.46
1308.0,76.53
1310.0,76.69
1312.0,76.75
1314.0,76.73
1316.0,76.68
1318.0,76.45
1320.0,76.34
1322.0,76.345
1324.0,76.34
1326.0,76.345
1328.0,76.36
1330.0,76.36
1332.0,76.32
1334.0,76.2
1336.0,76.1
1338.0,76.055
1340.0,76.01
1342.0,75.92
1344.0,75.82
1346.0,75.69
1348.0,75.62
1350.0,75.57
1352.0,75.56
1354.0,75.47
1356.0,75.44
1358.0,75.36
1360.0,75.3
1362.0,75.31
1364.0,75.32
1366.0,75.26
1368.0,75.18
1370.0,75.03
1372.0,74.83
1374.0,74.61
1376.0,74.24
1378.0,73.615
1380.0,72.81
1382.0,71.91
1384.0,71.16
1386.0,70.775
1388.0,70.76
1390.0,70.92
1392.0,71.135
1394.0,71.27
1396.0,71.23
1398.0,71.05
1400.0,70.77
1402.0,70.38
1404.0,69.98
1406.0,69.63
1408.0,69.29
1410.0,69.04
1412.0,68.85
1414.0,68.66
1416.0,68.49
1418.0,68.33
1420.0,68.155
1422.0,68.0
1424.0,67.865
1426.0,67.75
1428.0,67.66
1430.0,67.6
1432.0,67.55
1434.0,67.49
1436.0,67.45
1438.0,67.39
1440.0,67.36
1442.0,67.34
1444.0,67.35
1446.0,67.39
1448.0,67.47
1450.0,67.57
1452.0,67.65
1454.0,67.69
1456.0,67.73
1458.0,67.68
1460.0,67.63
1462.0,67.61
1464.0,67.53
1466.0,67.49
1468.0,67.45
1470.0,67.39
1472.0,67.365
1474.0,67.36
1476.0,67.32
1478.0,67.31
1480.0,67.34
1482.0,67.35
1484.0,67.36
1486.0,67.39
1488.0,67.435
1490.0,67.43
1492.0,67.46
1494.0,67.46
1496.0,67.46
1498.0,67.49
1500.0,67.5
1502.0,67.48
1504.0,67.48
1506.0,67.48
1508.0,67.48
1510.0,67.53
1512.0,67.55
1514.0,67.54
1516.0,67.58
1518.0,67.6
1520.0,67.6
1522.0,67.65
1524.0,67.68
1526.0,67.66
1528.0,67.67
1530.0,67.68
1532.0,67.69
1534.0,67.72
1536.0,67.76
1538.0,67.78
1540.0,67.81
1542.0,67.79
1544.0,67.77
1546.0,67.81
1548.0,67.84
1550.0,67.83
1552.0,67.88
1554.0,67.91
1556.0,67.95
1558.0,67.97
1560.0,67.99
1562.0,68.03
1564.0,68.11
1566.0,68.17
1568.0,68.18
1570.0,68.19
1572.0,68.17
1574.0,68.19
1576.0,68.25
1578.0,68.3
1580.0,68.35
1582.0,68.36
1584.0,68.38
1586.0,68.405
1588.0,68.43
1590.0,68.42
1592.0,68.42
1594.0,68.43
1596.0,68.45
1598.0,68.46
1600.0,68.49
1602.0,68.53
1604.0,68.51
1606.0,68.5
1608.0,68.46
1610.0,68.43
1612.0,68.42
1614.0,68.405
1616.0,68.405
1618.0,68.42
1620.0,68.42
1622.0,68.43
1624.0,68.39
1626.0,68.4
1628.0,68.38
1630.0,68.38
1632.0,68.39
1634.0,68.38
1636.0,68.335
1638.0,68.35
1640.0,68.335
1642.0,68.35
1644.0,68.36
1646.0,68.405
1648.0,68.39
1650.0,68.335
1652.0,68.32
1654.0,68.29
1656.0,68.31
1658.0,68.3
1660.0,68.225
1662.0,68.21
1664.0,68.21
1666.0,68.22
1668.0,68.21
1670.0,68.19
1672.0,68.15
1674.0,68.1
1676.0,68.11
1678.0,68.15
1680.0,68.15
1682.0,68.1
1684.0,68.03
1686.0,67.97
1688.0,68.01
1690.0,68.08
1692.0,68.08
1694.0,68.07
1696.0,68.045
1698.0,68.06
1700.0,68.08
1702.0,68.07
1704.0,68.03
1706.0,68.01
1708.0,68.0
1710.0,68.01
1712.0,67.975
1714.0,67.94
1716.0,67.9
1718.0,67.89
1720.0,67.89
1722.0,67.91
1724.0,67.9
1726.0,67.86
1728.0,67.88
1730.0,67.86
1732.0,67.84
1734.0,67.81
1736.0,67.795
1738.0,67.795
1740.0,67.84
1742.0,67.83
1744.0,67.83
1746.0,67.88
1748.0,67.9
1750.0,67.89
1752.0,67.85
1754.0,67.795
1756.0,67.79
1758.0,67.78
1760.0,67.77
1762.0,67.77
1764.0,67.78
1766.0,67.79
1768.0,67.78
1770.0,67.74
1772.0,67.71
1774.0,67.69
1776.0,67.67
1778.0,67.65
1780.0,67.61
1782.0,67.57
1784.0,67.53
1786.0,67.46
1788.0,67.43
1790.0,67.42
1792.0,67.435
1794.0,67.45
1796.0,67.45
1798.0,67.39
1800.0,67.34
1802.0,67.31
1804.0,67.24
1806.0,67.22
1808.0,67.185
1810.0,67.16
1812.0,67.13
1814.0,67.05
1816.0,67.0
1818.0,66.95
1820.0,66.89
1822.0,66.85
1824.0,66.78
1826.0,66.73
1828.0,66.69
1830.0,66.61
1832.0,66.53
1834.0,66.41
1836.0,66.33
1838.0,66.285
1840.0,66.25
1842.0,66.2
1844.0,66.105
1846.0,66.02
1848.0,65.97
1850.0,65.88
1852.0,65.85
1854.0,65.81
1856.0,65.77
1858.0,65.73
1860.0,65.66
1862.0,65.52
1864.0,65.34
1866.0,65.08
1868.0,64.79
1870.0,64.47
1872.0,64.12
1874.0,63.68
1876.0,63.22
1878.0,62.69
1880.0,62.11
1882.0,61.54
1884.0,60.93
1886.0,60.3
1888.0,59.58
1890.0,58.77
1892.0,57.96
1894.0,57.1
1896.0,56.2
1898.0,55.29
1900.0,54.47
1902.0,53.76
1904.0,53.19
1906.0,52.71
1908.0,52.34
1910.0,52.11
1912.0,51.92
1914.0,51.81
1916.0,51.69
1918.0,51.67
1920.0,51.73
1922.0,51.77
1924.0,51.83
1926.0,51.89
1928.0,51.93
1930.0,52.02
1932.0,52.025
1934.0,52.09
1936.0,52.11
1938.0,52.12
1940.0,52.13
1942.0,52.1
1944.0,52.1
1946.0,52.07
1948.0,52.025
1950.0,52.0
1952.0,52.0
1954.0,52.01
1956.0,52.02
1958.0,52.01
1960.0,51.97
1962.0,51.9
1964.0,51.845
1966.0,51.82
1968.0,51.77
1970.0,51.73
1972.0,51.68
1974.0,51.64
1976.0,51.56
1978.0,51.46
1980.0,51.41
1982.0,51.4
1984.0,51.41
1986.0,51.415
1988.0,51.43
1990.0,51.44
1992.0,51.415
1994.0,51.39
1996.0,51.4
1998.0,51.44
2000.0,51.51
2002.0,51.55
2004.0,51.57
2006.0,51.59
2008.0,51.58
2010.0,51.62
2012.0,51.65
2014.0,51.71
2016.0,51.775
2018.0,51.84
2020.0,51.93
2022.0,51.955
2024.0,52.01
2026.0,52.04
2028.0,52.1
2030.0,52.15
2032.0,52.17
2034.0,52.205
2036.0,52.25
2038.0,52.34
2040.0,52.385
2042.0,52.46
2044.0,52.51
2046.0,52.55
2048.0,52.59
2050.0,52.63
2052.0,52.73
2054.0,52.86
2056.0,52.94
2058.0,52.925
2060.0,52.925
2062.0,52.99
2064.0,53.09
2066.0,53.17
2068.0,53.2
2070.0,53.28
2072.0,53.4
2074.0,53.49
2076.0,53.51
2078.0,53.53
2080.0,53.55
2082.0,53.67
2084.0,53.785
2086.0,53.86
2088.0,53.895
2090.0,53.92
2092.0,53.93
2094.0,54.0
2096.0,54.06
2098.0,54.13
2100.0,54.18
2102.0,54.19
2104.0,54.28
2106.0,54.32
2108.0,54.39
2110.0,54.46
2112.0,54.53
2114.0,54.62
2116.0,54.685
2118.0,54.755
2120.0,54.79
2122.0,54.74
2124.0,54.72
2126.0,54.75
2128.0,54.82
2130.0,54.91
2132.0,54.95
2134.0,54.98
2136.0,55.05
2138.0,55.13
2140.0,55.24
2142.0,55.35
2144.0,55.45
2146.0,55.58
2148.0,55.7
2150.0,55.835
2152.0,55.96
2154.0,56.07
2156.0,56.17
2158.0,56.24
2160.0,56.28
2162.0,56.335
2164.0,56.42
2166.0,56.5
2168.0,56.56
2170.0,56.57
2172.0,56.59
2174.0,56.61
2176.0,56.62
2178.0,56.61
2180.0,56.6
2182.0,56.59
2184.0,56.55
2186.0,56.5
2188.0,56.47
2190.0,56.4
2192.0,56.32
2194.0,56.29
2196.0,56.31
2198.0,56.33
2200.0,56.265
2202.0,56.17
2204.0,56.07
2206.0,55.97
2208.0,55.89
2210.0,55.82
2212.0,55.76
2214.0,55.64
2216.0,55.47
2218.0,55.34
2220.0,55.23
2222.0,55.08
2224.0,54.89
2226.0,54.7
2228.0,54.57
2230.0,54.38
2232.0,54.12
2234.0,53.86
2236.0,53.67
2238.0,53.47
2240.0,53.22
2242.0,52.92
2244.0,52.62
2246.0,52.36
2248.0,52.1
2250.0,51.845
2252.0,51.595
2254.0,51.33
2256.0,51.09
2258.0,50.93
2260.0,50.79
2262.0,50.64
2264.0,50.445
2266.0,50.32
2268.0,50.19
2270.0,50.07
2272.0,49.9
2274.0,49.73
2276.0,49.53
2278.0,49.32
2280.0,49.03
2282.0,48.8
2284.0,48.59
2286.0,48.39
2288.0,48.2
2290.0,48.03
2292.0,47.88
2294.0,47.72
2296.0,47.47
2298.0,47.26
2300.0,47.16
2302.0,47.09
2304.0,46.96
2306.0,46.82
2308.0,46.79
2310.0,46.85
2312.0,47.08
2314.0,47.44
2316.0,47.83
2318.0,48.19
2320.0,48.55
2322.0,48.97
2324.0,49.36
2326.0,49.68
2328.0,49.96
2330.0,50.265
2332.0,50.51
2334.0,50.66
2336.0,50.74
2338.0,50.79
2340.0,50.83
2342.0,50.87
2344.0,50.86
2346.0,50.82
2348.0,50.68
2350.0,50.55
2352.0,50.445
2354.0,50.33
2356.0,50.1
2358.0,49.99
2360.0,49.88
2362.0,49.64
2364.0,49.38
2366.0,49.19
2368.0,49.03
2370.0,48.87
2372.0,48.72
2374.0,48.48
2376.0,48.21
2378.0,47.88
2380.0,47.59
2382.0,47.28
2384.0,47.0
2386.0,46.72
2388.0,46.45
2390.0,46.15
2392.0,45.83
2394.0,45.6
2396.0,45.48
2398.0,45.35
2400.0,45.24
2402.0,45.13
2404.0,44.9
2406.0,44.64
2408.0,44.4
2410.0,44.27
2412.0,44.03
2414.0,43.78
2416.0,43.53
2418.0,43.24
2420.0,42.94
2422.0,42.67
2424.0,42.32
2426.0,41.97
2428.0,41.67
2430.0,41.32
2432.0,40.9
2434.0,40.52
2436.0,40.19
2438.0,39.9
2440.0,39.5
2442.0,39.08
2444.0,38.73
2446.0,38.5
2448.0,38.23
2450.0,37.94
2452.0,37.61
2454.0,37.34
2456.0,37.1
2458.0,36.94
2460.0,36.715
2462.0,36.47
2464.0,36.265
2466.0,36.15
2468.0,36.05
2470.0,35.91
2472.0,35.7
2474.0,35.475
2476.0,35.31
2478.0,35.17
2480.0,34.98
2482.0,34.77
2484.0,34.64
2486.0,34.5
2488.0,34.31
2490.0,34.15
2492.0,34.0
2494.0,33.91
2496.0,33.89
2498.0,33.84
2500.0,33.805
