wavelength,reflectivity
1300.0,70.21
1302.0,69.98
1304.0,70.0
1306.0,69.86
1308.0,69.73
1310.0,69.82
1312.0,70.06
1314.0,70.19
1316.0,70.22
1318.0,70.28
1320.0,70.3
1322.0,70.42
1324.0,70.61
1326.0,70.77
1328.0,70.91
1330.0,70.97
1332.0,71.04
1334.0,71.135
1336.0,71.25
1338.0,71.3
1340.0,71.37
1342.0,71.41
1344.0,71.46
1346.0,71.54
1348.0,71.64
1350.0,71.675
1352.0,71.8
1354.0,71.91
1356.0,71.96
1358.0,72.01
1360.0,72.06
1362.0,72.16
1364.0,72.3
1366.0,72.42
1368.0,72.5
1370.0,72.59
1372.0,72.67
1374.0,72.73
1376.0,72.77
1378.0,72.825
1380.0,72.94
1382.0,73.075
1384.0,73.19
1386.0,73.255
1388.0,73.28
1390.0,73.325
1392.0,73.4
1394.0,73.48
1396.0,73.56
1398.0,73.61
1400.0,73.64
1402.0,73.67
1404.0,73.73
1406.0,73.8
1408.0,73.85
1410.0,73.91
1412.0,73.97
1414.0,73.99
1416.0,74.045
1418.0,74.09
1420.0,74.14
1422.0,74.19
1424.0,74.22
1426.0,74.26
1428.0,74.295
1430.0,74.32
1432.0,74.34
1434.0,74.37
1436.0,74.37
1438.0,74.38
1440.0,74.4
1442.0,74.34
1444.0,74.31
1446.0,74.31
1448.0,74.25
1450.0,74.21
1452.0,74.115
1454.0,73.97
1456.0,73.84
1458.0,73.685
1460.0,73.47
1462.0,73.17
1464.0,72.79
1466.0,72.38
1468.0,71.97
1470.0,71.55
1472.0,71.09
1474.0,70.58
1476.0,70.095
1478.0,69.66
1480.0,69.35
1482.0,69.21
1484.0,69.26
1486.0,69.54
1488.0,70.04
1490.0,70.65
1492.0,71.35
1494.0,72.03
1496.0,72.59
1498.0,72.98
1500.0,73.23
1502.0,73.37
1504.0,73.49
1506.0,73.615
1508.0,73.71
1510.0,73.81
1512.0,73.86
1514.0,73.865
1516.0,73.88
1518.0,73.86
1520.0,73.82
1522.0,73.76
1524.0,73.7
1526.0,73.66
1528.0,73.66
1530.0,73.65
1532.0,73.65
1534.0,73.65
1536.0,73.63
1538.0,73.64
1540.0,73.66
1542.0,73.68
1544.0,73.75
1546.0,73.78
1548.0,73.82
1550.0,73.88
1552.0,73.98
1554.0,74.02
1556.0,74.07
1558.0,74.13
1560.0,74.24
1562.0,74.37
1564.0,74.51
1566.0,74.65
1568.0,74.76
1570.0,74.86
1572.0,74.93
1574.0,74.99
1576.0,75.085
1578.0,75.22
1580.0,75.33
1582.0,75.47
1584.0,75.6
1586.0,75.68
1588.0,75.74
1590.0,75.8
1592.0,75.88
1594.0,75.97
1596.0,76.05
1598.0,76.12
1600.0,76.21
1602.0,76.26
1604.0,76.31
1606.0,76.345
1608.0,76.4
1610.0,76.43
1612.0,76.46
1614.0,76.5
1616.0,76.55
1618.0,76.58
1620.0,76.64
1622.0,76.68
1624.0,76.73
1626.0,76.72
1628.0,76.71
1630.0,76.775
1632.0,76.845
1634.0,76.9
1636.0,76.95
1638.0,76.98
1640.0,77.01
1642.0,77.02
1644.0,77.01
1646.0,77.05
1648.0,77.07
1650.0,77.11
1652.0,77.07
1654.0,77.08
1656.0,77.09
1658.0,77.08
1660.0,77.1
1662.0,77.1
1664.0,77.12
1666.0,77.19
1668.0,77.2
1670.0,77.2
1672.0,77.18
1674.0,77.13
1676.0,77.11
1678.0,77.1
1680.0,77.1
1682.0,77.135
1684.0,77.22
1686.0,77.23
1688.0,77.22
1690.0,77.23
1692.0,77.26
1694.0,77.36
1696.0,77.44
1698.0,77.47
1700.0,77.48
1702.0,77.48
1704.0,77.5
1706.0,77.52
1708.0,77.51
1710.0,77.47
1712.0,77.48
1714.0,77.51
1716.0,77.51
1718.0,77.45
1720.0,77.41
1722.0,77.37
1724.0,77.4
1726.0,77.44
1728.0,77.47
1730.0,77.52
1732.0,77.53
1734.0,77.52
1736.0,77.48
1738.0,77.46
1740.0,77.43
1742.0,77.385
1744.0,77.38
1746.0,77.36
1748.0,77.3
1750.0,77.28
1752.0,77.26
1754.0,77.27
1756.0,77.28
1758.0,77.25
1760.0,77.2
1762.0,77.15
1764.0,77.1
1766.0,77.08
1768.0,77.05
1770.0,77.01
1772.0,76.94
1774.0,76.88
1776.0,76.82
1778.0,76.79
1780.0,76.775
1782.0,76.76
1784.0,76.75
1786.0,76.67
1788.0,76.61
1790.0,76.56
1792.0,76.52
1794.0,76.46
1796.0,76.37
1798.0,76.26
1800.0,76.18
1802.0,76.08
1804.0,75.97
1806.0,75.8
1808.0,75.64
1810.0,75.48
1812.0,75.33
1814.0,75.18
1816.0,74.98
1818.0,74.79
1820.0,74.57
1822.0,74.33
1824.0,74.02
1826.0,73.64
1828.0,73.16
1830.0,72.61
1832.0,71.96
1834.0,71.21
1836.0,70.48
1838.0,69.8
1840.0,69.25
1842.0,68.92
1844.0,68.835
1846.0,68.99
1848.0,69.22
1850.0,69.46
1852.0,69.68
1854.0,69.86
1856.0,70.04
1858.0,70.24
1860.0,70.52
1862.0,70.885
1864.0,71.34
1866.0,71.87
1868.0,72.45
1870.0,73.0
1872.0,73.48
1874.0,73.83
1876.0,74.1
1878.0,74.295
1880.0,74.46
1882.0,74.61
1884.0,74.74
1886.0,74.835
1888.0,74.91
1890.0,74.9
1892.0,74.86
1894.0,74.8
1896.0,74.77
1898.0,74.73
1900.0,74.72
1902.0,74.7
1904.0,74.58
1906.0,74.5
1908.0,74.43
1910.0,74.38
1912.0,74.36
1914.0,74.295
1916.0,74.225
1918.0,74.115
1920.0,74.0
1922.0,73.91
1924.0,73.83
1926.0,73.78
1928.0,73.78
1930.0,73.73
1932.0,73.65
1934.0,73.54
1936.0,73.46
1938.0,73.4
1940.0,73.34
1942.0,73.31
1944.0,73.34
1946.0,73.36
1948.0,73.325
1950.0,73.24
1952.0,73.18
1954.0,73.15
1956.0,73.16
1958.0,73.17
1960.0,73.14
1962.0,73.15
1964.0,73.1
1966.0,73.02
1968.0,72.96
1970.0,72.895
1972.0,72.87
1974.0,72.86
1976.0,72.81
1978.0,72.82
1980.0,72.82
1982.0,72.8
1984.0,72.8
1986.0,72.75
1988.0,72.7
1990.0,72.61
1992.0,72.51
1994.0,72.41
1996.0,72.33
1998.0,72.285
2000.0,72.24
2002.0,72.13
2004.0,72.07
2006.0,72.02
2008.0,71.98
2010.0,71.98
2012.0,71.87
2014.0,71.84
2016.0,71.8
2018.0,71.77
2020.0,71.78
2022.0,71.72
2024.0,71.71
2026.0,71.67
2028.0,71.63
2030.0,71.55
2032.0,71.41
2034.0,71.26
2036.0,71.11
2038.0,71.01
2040.0,70.955
2042.0,70.91
2044.0,70.82
2046.0,70.74
2048.0,70.66
2050.0,70.595
2052.0,70.54
2054.0,70.46
2056.0,70.37
2058.0,70.29
2060.0,70.22
2062.0,70.18
2064.0,70.09
2066.0,69.985
2068.0,69.88
2070.0,69.83
2072.0,69.82
2074.0,69.78
2076.0,69.72
2078.0,69.64
2080.0,69.65
2082.0,69.62
2084.0,69.555
2086.0,69.47
2088.0,69.36
2090.0,69.3
2092.0,69.24
2094.0,69.17
2096.0,69.08
2098.0,69.01
2100.0,68.91
2102.0,68.835
2104.0,68.76
2106.0,68.71
2108.0,68.69
2110.0,68.585
2112.0,68.51
2114.0,68.39
2116.0,68.33
2118.0,68.32
2120.0,68.26
2122.0,68.18
2124.0,68.09
2126.0,68.03
2128.0,67.94
2130.0,67.82
2132.0,67.71
2134.0,67.59
2136.0,67.51
2138.0,67.42
2140.0,67.33
2142.0,67.24
2144.0,67.16
2146.0,67.1
2148.0,67.03
2150.0,66.95
2152.0,66.825
2154.0,66.71
2156.0,66.61
2158.0,66.54
2160.0,66.465
2162.0,66.39
2164.0,66.34
2166.0,66.28
2168.0,66.15
2170.0,66.01
2172.0,65.93
2174.0,65.89
2176.0,65.82
2178.0,65.69
2180.0,65.57
2182.0,65.39
2184.0,65.19
2186.0,64.98
2188.0,64.81
2190.0,64.63
2192.0,64.44
2194.0,64.2
2196.0,64.0
2198.0,63.77
2200.0,63.53
2202.0,63.3
2204.0,63.06
2206.0,62.85
2208.0,62.585
2210.0,62.32
2212.0,62.06
2214.0,61.78
2216.0,61.545
2218.0,61.26
2220.0,60.98
2222.0,60.74
2224.0,60.575
2226.0,60.38
2228.0,60.2
2230.0,60.035
2232.0,59.98
2234.0,59.91
2236.0,59.78
2238.0,59.66
2240.0,59.56
2242.0,59.44
2244.0,59.27
2246.0,58.89
2248.0,58.37
2250.0,57.77
2252.0,57.1
2254.0,56.35
2256.0,55.545
2258.0,54.82
2260.0,54.28
2262.0,53.93
2264.0,53.8
2266.0,53.895
2268.0,54.05
2270.0,54.25
2272.0,54.505
2274.0,55.02
2276.0,55.65
2278.0,56.33
2280.0,57.055
2282.0,57.79
2284.0,58.53
2286.0,59.24
2288.0,59.8
2290.0,60.21
2292.0,60.5
2294.0,60.575
2296.0,60.67
2298.0,60.7
2300.0,60.84
2302.0,61.11
2304.0,61.56
2306.0,62.085
2308.0,62.61
2310.0,63.12
2312.0,63.58
2314.0,63.98
2316.0,64.27
2318.0,64.54
2320.0,64.76
2322.0,64.98
2324.0,65.12
2326.0,65.26
2328.0,65.36
2330.0,65.48
2332.0,65.56
2334.0,65.64
2336.0,65.62
2338.0,65.62
2340.0,65.605
2342.0,65.605
2344.0,65.605
2346.0,65.55
2348.0,65.46
2350.0,65.38
2352.0,65.27
2354.0,65.16
2356.0,65.05
2358.0,64.9
2360.0,64.73
2362.0,64.56
2364.0,64.41
2366.0,64.22
2368.0,64.01
2370.0,63.7
2372.0,63.44
2374.0,63.24
2376.0,63.05
2378.0,62.75
2380.0,62.4
2382.0,61.99
2384.0,61.615
2386.0,61.28
2388.0,60.86
2390.0,60.37
2392.0,59.88
2394.0,59.48
2396.0,59.05
2398.0,58.65
2400.0,58.14
2402.0,57.68
2404.0,57.235
2406.0,56.84
2408.0,56.6
2410.0,56.28
2412.0,56.1
2414.0,55.97
2416.0,55.92
2418.0,55.8
2420.0,55.67
2422.0,55.62
2424.0,55.71
2426.0,55.72
2428.0,55.75
2430.0,55.7
2432.0,55.655
2434.0,55.62
2436.0,55.53
2438.0,55.36
2440.0,55.11
2442.0,54.84
2444.0,54.56
2446.0,54.145
2448.0,53.74
2450.0,53.32
2452.0,52.98
2454.0,52.53
2456.0,52.22
2458.0,51.99
2460.0,51.93
2462.0,51.87
2464.0,51.88
2466.0,51.95
2468.0,52.08
2470.0,52.11
2472.0,52.16
2474.0,52.26
2476.0,52.36
2478.0,52.36
2480.0,52.31
2482.0,52.27
2484.0,52.205
2486.0,52.09
2488.0,51.87
2490.0,51.53
2492.0,51.11
2494.0,50.7
2496.0,50.31
2498.0,49.8
2500.0,49.26
