wavelength,reflectivity
1300.0,46.16
1302.0,46.19
1304.0,46.26
1306.0,46.3
1308.0,46.25
1310.0,46.14
1312.0,46.02
1314.0,45.93
1316.0,45.99
1318.0,46.01
1320.0,45.98
1322.0,45.88
1324.0,45.76
1326.0,45.71
1328.0,45.74
1330.0,45.76
1332.0,45.8
1334.0,45.85
1336.0,45.88
1338.0,45.84
1340.0,45.75
1342.0,45.69
1344.0,45.67
1346.0,45.64
1348.0,45.63
1350.0,45.58
1352.0,45.53
1354.0,45.48
1356.0,45.43
1358.0,45.33
1360.0,45.23
1362.0,45.17
1364.0,45.13
1366.0,45.09
1368.0,45.04
1370.0,44.96
1372.0,44.85
1374.0,44.75
1376.0,44.6
1378.0,44.48
1380.0,44.3
1382.0,44.19
1384.0,43.88
1386.0,43.59
1388.0,43.03
1390.0,42.57
1392.0,41.75
1394.0,41.08
1396.0,40.19
1398.0,39.535
1400.0,38.78
1402.0,38.28
1404.0,37.71
1406.0,37.34
1408.0,37.04
1410.0,36.97
1412.0,37.12
1414.0,37.56
1416.0,38.23
1418.0,39.11
1420.0,40.03
1422.0,40.99
1424.0,41.76
1426.0,42.49
1428.0,42.92
1430.0,43.32
1432.0,43.48
1434.0,43.69
1436.0,43.78
1438.0,43.88
1440.0,43.91
1442.0,43.94
1444.0,43.92
1446.0,43.93
1448.0,43.95
1450.0,43.96
1452.0,43.96
1454.0,43.97
1456.0,43.99
1458.0,44.04
1460.0,44.05
1462.0,44.01
1464.0,43.96
1466.0,43.91
1468.0,43.89
1470.0,43.91
1472.0,43.92
1474.0,43.91
1476.0,43.89
1478.0,43.88
1480.0,43.87
1482.0,43.87
1484.0,43.88
1486.0,43.89
1488.0,43.87
1490.0,43.85
1492.0,43.81
1494.0,43.78
1496.0,43.76
1498.0,43.75
1500.0,43.76
1502.0,43.73
1504.0,43.67
1506.0,43.59
1508.0,43.5
1510.0,43.44
1512.0,43.41
1514.0,43.37
1516.0,43.34
1518.0,43.31
1520.0,43.28
1522.0,43.24
1524.0,43.19
1526.0,43.14
1528.0,43.06
1530.0,42.96
1532.0,42.84
1534.0,42.75
1536.0,42.66
1538.0,42.65
1540.0,42.59
1542.0,42.53
1544.0,42.49
1546.0,42.46
1548.0,42.42
1550.0,42.42
1552.0,42.37
1554.0,42.33
1556.0,42.3
1558.0,42.3
1560.0,42.32
1562.0,42.37
1564.0,42.42
1566.0,42.46
1568.0,42.5
1570.0,42.52
1572.0,42.52
1574.0,42.57
1576.0,42.63
1578.0,42.7
1580.0,42.73
1582.0,42.74
1584.0,42.76
1586.0,42.79
1588.0,42.83
1590.0,42.88
1592.0,42.92
1594.0,42.95
1596.0,42.97
1598.0,42.98
1600.0,43.02
1602.0,43.05
1604.0,43.05
1606.0,43.02
1608.0,43.01
1610.0,43.02
1612.0,43.02
1614.0,43.01
1616.0,42.98
1618.0,42.96
1620.0,42.95
1622.0,42.95
1624.0,42.95
1626.0,42.95
1628.0,42.96
1630.0,42.98
1632.0,43.0
1634.0,43.01
1636.0,43.0
1638.0,42.96
1640.0,42.94
1642.0,42.95
1644.0,42.98
1646.0,43.0
1648.0,42.98
1650.0,42.97
1652.0,43.0
1654.0,43.04
1656.0,43.06
1658.0,43.07
1660.0,43.07
1662.0,43.08
1664.0,43.11
1666.0,43.13
1668.0,43.18
1670.0,43.2
1672.0,43.19
1674.0,43.19
1676.0,43.17
1678.0,43.17
1680.0,43.17
1682.0,43.17
1684.0,43.16
1686.0,43.18
1688.0,43.17
1690.0,43.14
1692.0,43.12
1694.0,43.11
1696.0,43.12
1698.0,43.14
1700.0,43.14
1702.0,43.14
1704.0,43.15
1706.0,43.15
1708.0,43.13
1710.0,43.07
1712.0,43.02
1714.0,43.01
1716.0,43.05
1718.0,43.06
1720.0,43.07
1722.0,43.08
1724.0,43.07
1726.0,43.07
1728.0,43.06
1730.0,43.06
1732.0,43.04
1734.0,43.01
1736.0,42.99
1738.0,42.99
1740.0,43.02
1742.0,43.04
1744.0,43.02
1746.0,42.97
1748.0,42.9
1750.0,42.85
1752.0,42.84
1754.0,42.85
1756.0,42.87
1758.0,42.86
1760.0,42.82
1762.0,42.79
1764.0,42.78
1766.0,42.81
1768.0,42.8
1770.0,42.76
1772.0,42.74
1774.0,42.75
1776.0,42.76
1778.0,42.74
1780.0,42.7
1782.0,42.65
1784.0,42.66
1786.0,42.67
1788.0,42.69
1790.0,42.67
1792.0,42.64
1794.0,42.64
1796.0,42.62
1798.0,42.59
1800.0,42.55
1802.0,42.52
1804.0,42.53
1806.0,42.57
1808.0,42.59
1810.0,42.59
1812.0,42.57
1814.0,42.54
1816.0,42.53
1818.0,42.51
1820.0,42.49
1822.0,42.48
1824.0,42.44
1826.0,42.4
1828.0,42.33
1830.0,42.26
1832.0,42.25
1834.0,42.27
1836.0,42.27
1838.0,42.25
1840.0,42.23
1842.0,42.19
1844.0,42.12
1846.0,42.07
1848.0,42.07
1850.0,42.08
1852.0,42.1
1854.0,42.08
1856.0,42.04
1858.0,42.0
1860.0,41.94
1862.0,41.89
1864.0,41.82
1866.0,41.76
1868.0,41.69
1870.0,41.61
1872.0,41.56
1874.0,41.47
1876.0,41.38
1878.0,41.27
1880.0,41.15
1882.0,40.97
1884.0,40.73
1886.0,40.51
1888.0,40.235
1890.0,40.07
1892.0,39.785
1894.0,39.5
1896.0,39.14
1898.0,38.73
1900.0,38.4
1902.0,38.08
1904.0,37.91
1906.0,37.685
1908.0,37.54
1910.0,37.45
1912.0,37.415
1914.0,37.45
1916.0,37.46
1918.0,37.46
1920.0,37.53
1922.0,37.62
1924.0,37.71
1926.0,37.79
1928.0,37.84
1930.0,37.91
1932.0,37.94
1934.0,37.9
1936.0,37.86
1938.0,37.86
1940.0,37.88
1942.0,37.93
1944.0,37.91
1946.0,37.86
1948.0,37.82
1950.0,37.76
1952.0,37.73
1954.0,37.62
1956.0,37.5
1958.0,37.46
1960.0,37.44
1962.0,37.43
1964.0,37.325
1966.0,37.22
1968.0,37.13
1970.0,37.01
1972.0,36.85
1974.0,36.68
1976.0,36.59
1978.0,36.44
1980.0,36.29
1982.0,36.07
1984.0,35.83
1986.0,35.68
1988.0,35.49
1990.0,35.35
1992.0,35.12
1994.0,34.86
1996.0,34.66
1998.0,34.39
2000.0,34.2
2002.0,34.01
2004.0,33.88
2006.0,33.75
2008.0,33.61
2010.0,33.52
2012.0,33.48
2014.0,33.47
2016.0,33.43
2018.0,33.43
2020.0,33.48
2022.0,33.5
2024.0,33.51
2026.0,33.5
2028.0,33.5
2030.0,33.47
2032.0,33.46
2034.0,33.47
2036.0,33.5
2038.0,33.5
2040.0,33.45
2042.0,33.41
2044.0,33.38
2046.0,33.36
2048.0,33.34
2050.0,33.32
2052.0,33.25
2054.0,33.17
2056.0,33.07
2058.0,33.0
2060.0,32.97
2062.0,32.88
2064.0,32.79
2066.0,32.74
2068.0,32.68
2070.0,32.62
2072.0,32.49
2074.0,32.36
2076.0,32.24
2078.0,32.06
2080.0,31.84
2082.0,31.68
2084.0,31.61
2086.0,31.5
2088.0,31.3
2090.0,31.09
2092.0,30.91
2094.0,30.77
2096.0,30.59
2098.0,30.375
2100.0,30.28
2102.0,30.16
2104.0,30.05
2106.0,29.94
2108.0,29.81
2110.0,29.74
2112.0,29.66
2114.0,29.61
2116.0,29.62
2118.0,29.69
2120.0,29.79
2122.0,29.82
2124.0,29.82
2126.0,29.81
2128.0,29.86
2130.0,29.94
2132.0,29.98
2134.0,30.0
2136.0,30.0
2138.0,29.99
2140.0,30.01
2142.0,30.06
2144.0,30.18
2146.0,30.3
2148.0,30.37
2150.0,30.41
2152.0,30.45
2154.0,30.45
2156.0,30.42
2158.0,30.39
2160.0,30.37
2162.0,30.36
2164.0,30.34
2166.0,30.33
2168.0,30.34
2170.0,30.27
2172.0,30.16
2174.0,30.06
2176.0,29.925
2178.0,29.82
2180.0,29.57
2182.0,29.29
2184.0,29.06
2186.0,28.78
2188.0,28.525
2190.0,28.21
2192.0,27.88
2194.0,27.66
2196.0,27.5
2198.0,27.36
2200.0,27.24
2202.0,27.14
2204.0,27.12
2206.0,27.14
2208.0,27.27
2210.0,27.49
2212.0,27.81
2214.0,28.2
2216.0,28.49
2218.0,28.94
2220.0,29.42
2222.0,29.92
2224.0,30.41
2226.0,30.72
2228.0,30.97
2230.0,31.28
2232.0,31.58
2234.0,31.775
2236.0,31.94
2238.0,32.045
2240.0,32.25
2242.0,32.45
2244.0,32.56
2246.0,32.62
2248.0,32.64
2250.0,32.68
2252.0,32.745
2254.0,32.82
2256.0,32.92
2258.0,33.015
2260.0,33.09
2262.0,33.1
2264.0,33.08
2266.0,33.13
2268.0,33.21
2270.0,33.3
2272.0,33.32
2274.0,33.34
2276.0,33.37
2278.0,33.37
2280.0,33.37
2282.0,33.34
2284.0,33.31
2286.0,33.32
2288.0,33.41
2290.0,33.43
2292.0,33.36
2294.0,33.23
2296.0,33.12
2298.0,33.015
2300.0,32.91
2302.0,32.81
2304.0,32.72
2306.0,32.64
2308.0,32.54
2310.0,32.43
2312.0,32.34
2314.0,32.24
2316.0,32.13
2318.0,31.955
2320.0,31.76
2322.0,31.61
2324.0,31.47
2326.0,31.29
2328.0,31.12
2330.0,30.97
2332.0,30.77
2334.0,30.59
2336.0,30.465
2338.0,30.31
2340.0,30.195
2342.0,30.05
2344.0,29.86
2346.0,29.73
2348.0,29.66
2350.0,29.675
2352.0,29.78
2354.0,29.9
2356.0,29.98
2358.0,30.01
2360.0,30.08
2362.0,30.18
2364.0,30.26
2366.0,30.35
2368.0,30.39
2370.0,30.39
2372.0,30.46
2374.0,30.54
2376.0,30.58
2378.0,30.5
2380.0,30.375
2382.0,30.285
2384.0,30.32
2386.0,30.4
2388.0,30.44
2390.0,30.31
2392.0,30.25
2394.0,30.25
2396.0,30.28
2398.0,30.26
2400.0,30.25
2402.0,30.21
2404.0,30.06
2406.0,29.925
2408.0,29.88
2410.0,29.74
2412.0,29.585
2414.0,29.52
2416.0,29.44
2418.0,29.29
2420.0,29.15
2422.0,29.02
2424.0,28.87
2426.0,28.75
2428.0,28.72
2430.0,28.615
2432.0,28.49
2434.0,28.37
2436.0,28.31
2438.0,28.25
2440.0,28.2
2442.0,28.21
2444.0,28.24
2446.0,28.255
2448.0,28.22
2450.0,28.23
2452.0,28.29
2454.0,28.345
2456.0,28.33
2458.0,28.32
2460.0,28.39
2462.0,28.46
2464.0,28.5
2466.0,28.54
2468.0,28.54
2470.0,28.525
2472.0,28.56
2474.0,28.63
2476.0,28.65
2478.0,28.64
2480.0,28.65
2482.0,28.7
2484.0,28.7
2486.0,28.64
2488.0,28.57
2490.0,28.59
2492.0,28.615
2494.0,28.56
2496.0,28.55
2498.0,28.63
2500.0,28.74
