wavelength,reflectivity
1300.0,63.39
1302.0,63.45
1304.0,63.52
1306.0,63.485
1308.0,63.3
1310.0,63.46
1312.0,63.59
1314.0,63.555
1316.0,63.555
1318.0,63.52
1320.0,63.39
1322.0,63.4
1324.0,63.45
1326.0,63.47
1328.0,63.5
1330.0,63.47
1332.0,63.36
1334.0,63.37
1336.0,63.4
1338.0,63.37
1340.0,63.33
1342.0,63.32
1344.0,63.34
1346.0,63.38
1348.0,63.37
1350.0,63.3
1352.0,63.22
1354.0,63.1
1356.0,63.08
1358.0,63.07
1360.0,63.09
1362.0,63.01
1364.0,62.94
1366.0,62.875
1368.0,62.875
1370.0,62.92
1372.0,62.93
1374.0,62.89
1376.0,62.85
1378.0,62.82
1380.0,62.8
1382.0,62.765
1384.0,62.75
1386.0,62.71
1388.0,62.67
1390.0,62.61
1392.0,62.54
1394.0,62.47
1396.0,62.4
1398.0,62.31
1400.0,62.25
1402.0,62.14
1404.0,62.06
1406.0,61.95
1408.0,61.83
1410.0,61.68
1412.0,61.56
1414.0,61.4
1416.0,61.25
1418.0,61.09
1420.0,60.9
1422.0,60.71
1424.0,60.53
1426.0,60.34
1428.0,60.13
1430.0,59.88
1432.0,59.62
1434.0,59.34
1436.0,59.03
1438.0,58.68
1440.0,58.32
1442.0,57.91
1444.0,57.5
1446.0,57.02
1448.0,56.53
1450.0,56.07
1452.0,55.655
1454.0,55.28
1456.0,54.98
1458.0,54.75
1460.0,54.62
1462.0,54.62
1464.0,54.72
1466.0,54.91
1468.0,55.19
1470.0,55.54
1472.0,55.93
1474.0,56.335
1476.0,56.73
1478.0,57.02
1480.0,57.27
1482.0,57.47
1484.0,57.665
1486.0,57.84
1488.0,57.98
1490.0,58.09
1492.0,58.2
1494.0,58.27
1496.0,58.36
1498.0,58.41
1500.0,58.44
1502.0,58.48
1504.0,58.51
1506.0,58.51
1508.0,58.53
1510.0,58.56
1512.0,58.54
1514.0,58.51
1516.0,58.43
1518.0,58.34
1520.0,58.26
1522.0,58.2
1524.0,58.11
1526.0,57.99
1528.0,57.86
1530.0,57.77
1532.0,57.72
1534.0,57.665
1536.0,57.64
1538.0,57.65
1540.0,57.68
1542.0,57.73
1544.0,57.81
1546.0,57.9
1548.0,57.95
1550.0,58.0
1552.0,57.98
1554.0,57.92
1556.0,57.93
1558.0,57.91
1560.0,57.88
1562.0,57.82
1564.0,57.72
1566.0,57.61
1568.0,57.485
1570.0,57.36
1572.0,57.26
1574.0,57.12
1576.0,56.98
1578.0,56.83
1580.0,56.69
1582.0,56.56
1584.0,56.47
1586.0,56.35
1588.0,56.22
1590.0,56.11
1592.0,56.0
1594.0,55.86
1596.0,55.7
1598.0,55.545
1600.0,55.41
1602.0,55.31
1604.0,55.15
1606.0,55.02
1608.0,54.88
1610.0,54.72
1612.0,54.6
1614.0,54.47
1616.0,54.36
1618.0,54.26
1620.0,54.12
1622.0,53.98
1624.0,53.86
1626.0,53.76
1628.0,53.64
1630.0,53.49
1632.0,53.32
1634.0,53.19
1636.0,53.07
1638.0,52.96
1640.0,52.83
1642.0,52.67
1644.0,52.51
1646.0,52.385
1648.0,52.26
1650.0,52.18
1652.0,52.07
1654.0,51.94
1656.0,51.81
1658.0,51.67
1660.0,51.53
1662.0,51.41
1664.0,51.29
1666.0,51.16
1668.0,51.02
1670.0,50.89
1672.0,50.76
1674.0,50.69
1676.0,50.59
1678.0,50.52
1680.0,50.44
1682.0,50.34
1684.0,50.26
1686.0,50.14
1688.0,50.03
1690.0,49.94
1692.0,49.86
1694.0,49.79
1696.0,49.74
1698.0,49.65
1700.0,49.59
1702.0,49.55
1704.0,49.5
1706.0,49.42
1708.0,49.31
1710.0,49.18
1712.0,49.09
1714.0,49.01
1716.0,48.94
1718.0,48.92
1720.0,48.89
1722.0,48.85
1724.0,48.8
1726.0,48.72
1728.0,48.66
1730.0,48.58
1732.0,48.52
1734.0,48.54
1736.0,48.51
1738.0,48.44
1740.0,48.36
1742.0,48.32
1744.0,48.32
1746.0,48.32
1748.0,48.29
1750.0,48.25
1752.0,48.18
1754.0,48.11
1756.0,48.05
1758.0,48.0
1760.0,47.95
1762.0,47.89
1764.0,47.83
1766.0,47.79
1768.0,47.74
1770.0,47.72
1772.0,47.69
1774.0,47.66
1776.0,47.63
1778.0,47.59
1780.0,47.54
1782.0,47.49
1784.0,47.44
1786.0,47.41
1788.0,47.37
1790.0,47.31
1792.0,47.24
1794.0,47.19
1796.0,47.15
1798.0,47.14
1800.0,47.1
1802.0,47.07
1804.0,47.03
1806.0,47.02
1808.0,47.01
1810.0,46.98
1812.0,46.94
1814.0,46.88
1816.0,46.85
1818.0,46.83
1820.0,46.81
1822.0,46.78
1824.0,46.77
1826.0,46.74
1828.0,46.73
1830.0,46.73
1832.0,46.74
1834.0,46.75
1836.0,46.72
1838.0,46.67
1840.0,46.64
1842.0,46.62
1844.0,46.61
1846.0,46.61
1848.0,46.57
1850.0,46.58
1852.0,46.6
1854.0,46.59
1856.0,46.56
1858.0,46.51
1860.0,46.49
1862.0,46.49
1864.0,46.49
1866.0,46.48
1868.0,46.46
1870.0,46.42
1872.0,46.35
1874.0,46.29
1876.0,46.28
1878.0,46.23
1880.0,46.18
1882.0,46.12
1884.0,46.07
1886.0,46.02
1888.0,45.94
1890.0,45.85
1892.0,45.76
1894.0,45.65
1896.0,45.55
1898.0,45.44
1900.0,45.36
1902.0,45.28
1904.0,45.15
1906.0,45.02
1908.0,44.88
1910.0,44.74
1912.0,44.57
1914.0,44.37
1916.0,44.15
1918.0,43.96
1920.0,43.79
1922.0,43.6
1924.0,43.37
1926.0,43.14
1928.0,42.91
1930.0,42.66
1932.0,42.39
1934.0,42.07
1936.0,41.76
1938.0,41.42
1940.0,41.08
1942.0,40.68
1944.0,40.28
1946.0,39.91
1948.0,39.51
1950.0,39.1
1952.0,38.63
1954.0,38.16
1956.0,37.76
1958.0,37.36
1960.0,36.99
1962.0,36.68
1964.0,36.46
1966.0,36.35
1968.0,36.28
1970.0,36.265
1972.0,36.31
1974.0,36.44
1976.0,36.625
1978.0,36.805
1980.0,36.99
1982.0,37.09
1984.0,37.13
1986.0,37.21
1988.0,37.26
1990.0,37.3
1992.0,37.26
1994.0,37.2
1996.0,37.18
1998.0,37.18
2000.0,37.23
2002.0,37.28
2004.0,37.37
2006.0,37.49
2008.0,37.7
2010.0,37.95
2012.0,38.2
2014.0,38.42
2016.0,38.64
2018.0,38.88
2020.0,39.085
2022.0,39.2
2024.0,39.24
2026.0,39.29
2028.0,39.35
2030.0,39.44
2032.0,39.48
2034.0,39.49
2036.0,39.52
2038.0,39.51
2040.0,39.48
2042.0,39.42
2044.0,39.38
2046.0,39.37
2048.0,39.355
2050.0,39.31
2052.0,39.22
2054.0,39.19
2056.0,39.175
2058.0,39.19
2060.0,39.14
2062.0,39.085
2064.0,39.05
2066.0,39.03
2068.0,38.995
2070.0,38.97
2072.0,38.99
2074.0,39.01
2076.0,39.01
2078.0,38.97
2080.0,38.93
2082.0,38.95
2084.0,38.95
2086.0,38.9
2088.0,38.88
2090.0,38.88
2092.0,38.88
2094.0,38.86
2096.0,38.83
2098.0,38.85
2100.0,38.88
2102.0,38.87
2104.0,38.87
2106.0,38.9
2108.0,38.95
2110.0,38.97
2112.0,38.94
2114.0,38.93
2116.0,38.93
2118.0,38.96
2120.0,39.01
2122.0,39.06
2124.0,39.11
2126.0,39.13
2128.0,39.17
2130.0,39.2
2132.0,39.23
2134.0,39.26
2136.0,39.28
2138.0,39.31
2140.0,39.33
2142.0,39.355
2144.0,39.41
2146.0,39.48
2148.0,39.53
2150.0,39.57
2152.0,39.56
2154.0,39.58
2156.0,39.63
2158.0,39.69
2160.0,39.74
2162.0,39.77
2164.0,39.8
2166.0,39.85
2168.0,39.85
2170.0,39.87
2172.0,39.93
2174.0,39.99
2176.0,40.07
2178.0,40.04
2180.0,40.08
2182.0,40.12
2184.0,40.17
2186.0,40.2
2188.0,40.21
2190.0,40.25
2192.0,40.32
2194.0,40.35
2196.0,40.36
2198.0,40.37
2200.0,40.43
2202.0,40.47
2204.0,40.52
2206.0,40.56
2208.0,40.62
2210.0,40.69
2212.0,40.72
2214.0,40.78
2216.0,40.82
2218.0,40.88
2220.0,40.9
2222.0,40.97
2224.0,41.07
2226.0,41.15
2228.0,41.2
2230.0,41.22
2232.0,41.32
2234.0,41.41
2236.0,41.5
2238.0,41.55
2240.0,41.62
2242.0,41.67
2244.0,41.69
2246.0,41.73
2248.0,41.78
2250.0,41.8
2252.0,41.77
2254.0,41.67
2256.0,41.62
2258.0,41.61
2260.0,41.63
2262.0,41.6
2264.0,41.57
2266.0,41.59
2268.0,41.59
2270.0,41.6
2272.0,41.57
2274.0,41.53
2276.0,41.54
2278.0,41.51
2280.0,41.44
2282.0,41.4
2284.0,41.36
2286.0,41.29
2288.0,41.17
2290.0,41.07
2292.0,40.98
2294.0,40.82
2296.0,40.64
2298.0,40.47
2300.0,40.325
2302.0,40.17
2304.0,39.965
2306.0,39.84
2308.0,39.73
2310.0,39.58
2312.0,39.43
2314.0,39.265
2316.0,39.15
2318.0,38.98
2320.0,38.89
2322.0,38.79
2324.0,38.67
2326.0,38.6
2328.0,38.58
2330.0,38.565
2332.0,38.58
2334.0,38.55
2336.0,38.565
2338.0,38.65
2340.0,38.71
2342.0,38.77
2344.0,38.74
2346.0,38.79
2348.0,38.84
2350.0,38.92
2352.0,38.98
2354.0,38.905
2356.0,38.87
2358.0,38.85
2360.0,38.85
2362.0,38.82
2364.0,38.76
2366.0,38.74
2368.0,38.7
2370.0,38.62
2372.0,38.56
2374.0,38.51
2376.0,38.49
2378.0,38.45
2380.0,38.32
2382.0,38.23
2384.0,38.115
2386.0,38.05
2388.0,37.95
2390.0,37.85
2392.0,37.77
2394.0,37.67
2396.0,37.57
2398.0,37.46
2400.0,37.35
2402.0,37.235
2404.0,37.07
2406.0,36.94
2408.0,36.8
2410.0,36.68
2412.0,36.49
2414.0,36.34
2416.0,36.16
2418.0,36.02
2420.0,35.86
2422.0,35.7
2424.0,35.52
2426.0,35.34
2428.0,35.2
2430.0,35.07
2432.0,34.9
2434.0,34.72
2436.0,34.58
2438.0,34.46
2440.0,34.3
2442.0,34.14
2444.0,33.97
2446.0,33.71
2448.0,33.52
2450.0,33.26
2452.0,33.1
2454.0,32.94
2456.0,32.745
2458.0,32.46
2460.0,32.2
2462.0,31.98
2464.0,31.74
2466.0,31.45
2468.0,31.19
2470.0,30.75
2472.0,30.39
2474.0,30.07
2476.0,29.83
2478.0,29.42
2480.0,29.11
2482.0,28.85
2484.0,28.56
2486.0,28.18
2488.0,27.76
2490.0,27.39
2492.0,27.03
2494.0,26.66
2496.0,26.31
2498.0,25.91
2500.0,25.57
