wavelength,reflectivity
1300.0,12.21
1302.0,12.52
1304.0,12.65
1306.0,12.8
1308.0,12.805
1310.0,12.94
1312.0,12.97
1314.0,12.87
1316.0,12.79
1318.0,12.74
1320.0,12.7
1322.0,12.7
1324.0,12.66
1326.0,12.65
1328.0,12.68
1330.0,12.73
1332.0,12.79
1334.0,12.85
1336.0,12.88
1338.0,12.93
1340.0,12.96
1342.0,13.0
1344.0,13.03
1346.0,13.05
1348.0,13.06
1350.0,13.11
1352.0,13.17
1354.0,13.26
1356.0,13.32
1358.0,13.38
1360.0,13.42
1362.0,13.46
1364.0,13.51
1366.0,13.58
1368.0,13.65
1370.0,13.73
1372.0,13.775
1374.0,13.84
1376.0,13.89
1378.0,13.95
1380.0,14.03
1382.0,14.08
1384.0,14.14
1386.0,14.2
1388.0,14.28
1390.0,14.36
1392.0,14.43
1394.0,14.48
1396.0,14.53
1398.0,14.61
1400.0,14.7
1402.0,14.76
1404.0,14.8
1406.0,14.89
1408.0,14.97
1410.0,15.06
1412.0,15.14
1414.0,15.22
1416.0,15.31
1418.0,15.4
1420.0,15.48
1422.0,15.53
1424.0,15.62
1426.0,15.75
1428.0,15.88
1430.0,16.0
1432.0,16.1
1434.0,16.19
1436.0,16.3
1438.0,16.39
1440.0,16.48
1442.0,16.59
1444.0,16.73
1446.0,16.85
1448.0,16.99
1450.0,17.1
1452.0,17.22
1454.0,17.34
1456.0,17.43
1458.0,17.55
1460.0,17.69
1462.0,17.85
1464.0,18.01
1466.0,18.15
1468.0,18.26
1470.0,18.38
1472.0,18.52
1474.0,18.68
1476.0,18.85
1478.0,18.99
1480.0,19.13
1482.0,19.27
1484.0,19.43
1486.0,19.62
1488.0,19.81
1490.0,19.98
1492.0,20.17
1494.0,20.36
1496.0,20.58
1498.0,20.78
1500.0,21.0
1502.0,21.23
1504.0,21.45
1506.0,21.67
1508.0,21.85
1510.0,22.03
1512.0,22.26
1514.0,22.46
1516.0,22.72
1518.0,22.95
1520.0,23.18
1522.0,23.44
1524.0,23.68
1526.0,23.92
1528.0,24.19
1530.0,24.45
1532.0,24.7
1534.0,24.95
1536.0,25.185
1538.0,25.45
1540.0,25.73
1542.0,26.0
1544.0,26.29
1546.0,26.585
1548.0,26.88
1550.0,27.14
1552.0,27.39
1554.0,27.645
1556.0,27.93
1558.0,28.23
1560.0,28.51
1562.0,28.79
1564.0,29.1
1566.0,29.4
1568.0,29.71
1570.0,29.99
1572.0,30.28
1574.0,30.61
1576.0,30.95
1578.0,31.28
1580.0,31.57
1582.0,31.85
1584.0,32.1
1586.0,32.37
1588.0,32.67
1590.0,32.96
1592.0,33.24
1594.0,33.51
1596.0,33.75
1598.0,34.04
1600.0,34.37
1602.0,34.64
1604.0,34.91
1606.0,35.18
1608.0,35.44
1610.0,35.74
1612.0,36.0
1614.0,36.25
1616.0,36.52
1618.0,36.75
1620.0,36.97
1622.0,37.17
1624.0,37.4
1626.0,37.65
1628.0,37.91
1630.0,38.14
1632.0,38.34
1634.0,38.52
1636.0,38.71
1638.0,38.905
1640.0,39.12
1642.0,39.35
1644.0,39.59
1646.0,39.82
1648.0,40.04
1650.0,40.2
1652.0,40.35
1654.0,40.52
1656.0,40.7
1658.0,40.88
1660.0,41.03
1662.0,41.2
1664.0,41.38
1666.0,41.56
1668.0,41.71
1670.0,41.85
1672.0,42.03
1674.0,42.24
1676.0,42.39
1678.0,42.56
1680.0,42.71
1682.0,42.85
1684.0,43.0
1686.0,43.12
1688.0,43.27
1690.0,43.44
1692.0,43.57
1694.0,43.71
1696.0,43.82
1698.0,43.95
1700.0,44.09
1702.0,44.24
1704.0,44.36
1706.0,44.49
1708.0,44.58
1710.0,44.68
1712.0,44.81
1714.0,44.92
1716.0,45.03
1718.0,45.15
1720.0,45.23
1722.0,45.34
1724.0,45.43
1726.0,45.53
1728.0,45.65
1730.0,45.73
1732.0,45.83
1734.0,45.93
1736.0,46.08
1738.0,46.22
1740.0,46.32
1742.0,46.42
1744.0,46.5
1746.0,46.59
1748.0,46.68
1750.0,46.74
1752.0,46.83
1754.0,46.92
1756.0,47.0
1758.0,47.08
1760.0,47.16
1762.0,47.23
1764.0,47.32
1766.0,47.41
1768.0,47.48
1770.0,47.55
1772.0,47.61
1774.0,47.66
1776.0,47.75
1778.0,47.84
1780.0,47.91
1782.0,47.97
1784.0,48.04
1786.0,48.08
1788.0,48.13
1790.0,48.18
1792.0,48.22
1794.0,48.28
1796.0,48.33
1798.0,48.37
1800.0,48.38
1802.0,48.4
1804.0,48.42
1806.0,48.43
1808.0,48.47
1810.0,48.5
1812.0,48.55
1814.0,48.59
1816.0,48.59
1818.0,48.56
1820.0,48.55
1822.0,48.58
1824.0,48.61
1826.0,48.6
1828.0,48.59
1830.0,48.57
1832.0,48.56
1834.0,48.56
1836.0,48.55
1838.0,48.55
1840.0,48.51
1842.0,48.46
1844.0,48.44
1846.0,48.43
1848.0,48.43
1850.0,48.42
1852.0,48.4
1854.0,48.41
1856.0,48.39
1858.0,48.32
1860.0,48.25
1862.0,48.21
1864.0,48.19
1866.0,48.19
1868.0,48.15
1870.0,48.09
1872.0,48.04
1874.0,47.97
1876.0,47.91
1878.0,47.84
1880.0,47.76
1882.0,47.69
1884.0,47.63
1886.0,47.54
1888.0,47.44
1890.0,47.38
1892.0,47.23
1894.0,47.12
1896.0,47.02
1898.0,46.91
1900.0,46.81
1902.0,46.69
1904.0,46.58
1906.0,46.49
1908.0,46.4
1910.0,46.35
1912.0,46.35
1914.0,46.36
1916.0,46.32
1918.0,46.25
1920.0,46.19
1922.0,46.16
1924.0,46.14
1926.0,46.13
1928.0,46.09
1930.0,46.09
1932.0,46.06
1934.0,46.06
1936.0,46.07
1938.0,46.09
1940.0,46.11
1942.0,46.11
1944.0,46.07
1946.0,46.06
1948.0,46.1
1950.0,46.15
1952.0,46.18
1954.0,46.18
1956.0,46.18
1958.0,46.2
1960.0,46.21
1962.0,46.18
1964.0,46.18
1966.0,46.2
1968.0,46.25
1970.0,46.29
1972.0,46.31
1974.0,46.33
1976.0,46.34
1978.0,46.31
1980.0,46.31
1982.0,46.33
1984.0,46.37
1986.0,46.41
1988.0,46.4
1990.0,46.44
1992.0,46.48
1994.0,46.49
1996.0,46.52
1998.0,46.51
2000.0,46.53
2002.0,46.53
2004.0,46.53
2006.0,46.59
2008.0,46.65
2010.0,46.75
2012.0,46.83
2014.0,46.91
2016.0,46.99
2018.0,47.01
2020.0,47.09
2022.0,47.21
2024.0,47.36
2026.0,47.49
2028.0,47.55
2030.0,47.61
2032.0,47.65
2034.0,47.75
2036.0,47.84
2038.0,47.88
2040.0,47.92
2042.0,47.96
2044.0,48.02
2046.0,48.05
2048.0,48.03
2050.0,48.02
2052.0,48.05
2054.0,48.11
2056.0,48.16
2058.0,48.15
2060.0,48.11
2062.0,48.11
2064.0,48.16
2066.0,48.21
2068.0,48.22
2070.0,48.23
2072.0,48.23
2074.0,48.23
2076.0,48.22
2078.0,48.2
2080.0,48.17
2082.0,48.15
2084.0,48.13
2086.0,48.11
2088.0,48.08
2090.0,48.04
2092.0,48.01
2094.0,47.98
2096.0,47.93
2098.0,47.9
2100.0,47.87
2102.0,47.85
2104.0,47.84
2106.0,47.78
2108.0,47.73
2110.0,47.68
2112.0,47.63
2114.0,47.59
2116.0,47.56
2118.0,47.51
2120.0,47.44
2122.0,47.39
2124.0,47.36
2126.0,47.37
2128.0,47.24
2130.0,47.13
2132.0,47.05
2134.0,47.02
2136.0,47.02
2138.0,46.97
2140.0,46.88
2142.0,46.75
2144.0,46.62
2146.0,46.54
2148.0,46.5
2150.0,46.46
2152.0,46.39
2154.0,46.35
2156.0,46.31
2158.0,46.27
2160.0,46.2
2162.0,46.14
2164.0,46.11
2166.0,46.1
2168.0,46.1
2170.0,46.08
2172.0,46.05
2174.0,46.06
2176.0,46.02
2178.0,45.99
2180.0,45.91
2182.0,45.83
2184.0,45.74
2186.0,45.66
2188.0,45.64
2190.0,45.59
2192.0,45.5
2194.0,45.43
2196.0,45.31
2198.0,45.17
2200.0,45.04
2202.0,44.94
2204.0,44.86
2206.0,44.78
2208.0,44.66
2210.0,44.51
2212.0,44.34
2214.0,44.2
2216.0,44.07
2218.0,43.9
2220.0,43.72
2222.0,43.59
2224.0,43.46
2226.0,43.35
2228.0,43.19
2230.0,43.03
2232.0,42.78
2234.0,42.59
2236.0,42.43
2238.0,42.22
2240.0,41.99
2242.0,41.75
2244.0,41.52
2246.0,41.31
2248.0,41.12
2250.0,40.92
2252.0,40.7
2254.0,40.47
2256.0,40.235
2258.0,40.03
2260.0,39.785
2262.0,39.52
2264.0,39.23
2266.0,39.01
2268.0,38.82
2270.0,38.59
2272.0,38.29
2274.0,38.01
2276.0,37.79
2278.0,37.58
2280.0,37.43
2282.0,37.22
2284.0,36.97
2286.0,36.69
2288.0,36.47
2290.0,36.31
2292.0,36.13
2294.0,35.95
2296.0,35.78
2298.0,35.56
2300.0,35.37
2302.0,35.2
2304.0,35.045
2306.0,34.88
2308.0,34.79
2310.0,34.685
2312.0,34.59
2314.0,34.48
2316.0,34.39
2318.0,34.3
2320.0,34.165
2322.0,34.075
2324.0,34.0
2326.0,33.96
2328.0,33.89
2330.0,33.87
2332.0,33.93
2334.0,33.94
2336.0,33.895
2338.0,33.91
2340.0,33.985
2342.0,34.09
2344.0,34.15
2346.0,34.23
2348.0,34.35
2350.0,34.52
2352.0,34.75
2354.0,34.91
2356.0,35.1
2358.0,35.295
2360.0,35.52
2362.0,35.77
2364.0,35.97
2366.0,36.25
2368.0,36.51
2370.0,36.715
2372.0,36.94
2374.0,37.11
2376.0,37.35
2378.0,37.57
2380.0,37.74
2382.0,37.87
2384.0,37.97
2386.0,38.13
2388.0,38.295
2390.0,38.47
2392.0,38.59
2394.0,38.69
2396.0,38.76
2398.0,38.77
2400.0,38.76
2402.0,38.72
2404.0,38.77
2406.0,38.8
2408.0,38.72
2410.0,38.65
2412.0,38.63
2414.0,38.55
2416.0,38.42
2418.0,38.36
2420.0,38.23
2422.0,38.06
2424.0,37.8
2426.0,37.53
2428.0,37.28
2430.0,37.1
2432.0,36.87
2434.0,36.58
2436.0,36.33
2438.0,36.03
2440.0,35.78
2442.0,35.49
2444.0,35.12
2446.0,34.66
2448.0,34.3
2450.0,34.03
2452.0,33.715
2454.0,33.32
2456.0,32.95
2458.0,32.54
2460.0,32.1
2462.0,31.64
2464.0,31.255
2466.0,30.895
2468.0,30.5
2470.0,30.18
2472.0,29.87
2474.0,29.56
2476.0,29.17
2478.0,28.84
2480.0,28.55
2482.0,28.31
2484.0,28.11
2486.0,27.87
2488.0,27.55
2490.0,27.35
2492.0,27.23
2494.0,27.14
2496.0,27.06
2498.0,26.84
2500.0,26.57
