wavelength,reflectivity
1300.0,68.94
1302.0,68.79
1304.0,68.69
1306.0,68.92
1308.0,69.29
1310.0,69.53
1312.0,69.67
1314.0,69.66
1316.0,69.59
1318.0,69.71
1320.0,69.82
1322.0,69.9
1324.0,70.01
1326.0,70.12
1328.0,70.18
1330.0,70.23
1332.0,70.31
1334.0,70.37
1336.0,70.47
1338.0,70.56
1340.0,70.595
1342.0,70.54
1344.0,70.52
1346.0,70.59
1348.0,70.68
1350.0,70.72
1352.0,70.82
1354.0,70.88
1356.0,70.91
1358.0,71.0
1360.0,71.01
1362.0,71.02
1364.0,71.05
1366.0,71.09
1368.0,71.15
1370.0,71.23
1372.0,71.28
1374.0,71.3
1376.0,71.31
1378.0,71.33
1380.0,71.33
1382.0,71.3
1384.0,71.29
1386.0,71.27
1388.0,71.26
1390.0,71.25
1392.0,71.21
1394.0,71.17
1396.0,71.1
1398.0,71.05
1400.0,70.955
1402.0,70.88
1404.0,70.79
1406.0,70.7
1408.0,70.595
1410.0,70.52
1412.0,70.41
1414.0,70.34
1416.0,70.31
1418.0,70.28
1420.0,70.3
1422.0,70.32
1424.0,70.32
1426.0,70.32
1428.0,70.3
1430.0,70.28
1432.0,70.29
1434.0,70.34
1436.0,70.36
1438.0,70.39
1440.0,70.37
1442.0,70.345
1444.0,70.36
1446.0,70.36
1448.0,70.36
1450.0,70.36
1452.0,70.36
1454.0,70.38
1456.0,70.39
1458.0,70.39
1460.0,70.41
1462.0,70.42
1464.0,70.45
1466.0,70.44
1468.0,70.41
1470.0,70.37
1472.0,70.345
1474.0,70.36
1476.0,70.38
1478.0,70.38
1480.0,70.4
1482.0,70.4
1484.0,70.43
1486.0,70.48
1488.0,70.51
1490.0,70.5
1492.0,70.5
1494.0,70.5
1496.0,70.52
1498.0,70.54
1500.0,70.525
1502.0,70.57
1504.0,70.63
1506.0,70.68
1508.0,70.69
1510.0,70.67
1512.0,70.64
1514.0,70.64
1516.0,70.66
1518.0,70.66
1520.0,70.68
1522.0,70.705
1524.0,70.74
1526.0,70.75
1528.0,70.74
1530.0,70.72
1532.0,70.72
1534.0,70.7
1536.0,70.69
1538.0,70.69
1540.0,70.69
1542.0,70.705
1544.0,70.69
1546.0,70.66
1548.0,70.68
1550.0,70.67
1552.0,70.66
1554.0,70.62
1556.0,70.62
1558.0,70.65
1560.0,70.68
1562.0,70.67
1564.0,70.65
1566.0,70.64
1568.0,70.62
1570.0,70.595
1572.0,70.59
1574.0,70.56
1576.0,70.55
1578.0,70.52
1580.0,70.54
1582.0,70.59
1584.0,70.65
1586.0,70.66
1588.0,70.67
1590.0,70.67
1592.0,70.68
1594.0,70.7
1596.0,70.705
1598.0,70.7
1600.0,70.705
1602.0,70.69
1604.0,70.68
1606.0,70.7
1608.0,70.63
1610.0,70.55
1612.0,70.52
1614.0,70.525
1616.0,70.58
1618.0,70.58
1620.0,70.525
1622.0,70.46
1624.0,70.41
1626.0,70.39
1628.0,70.43
1630.0,70.42
1632.0,70.39
1634.0,70.345
1636.0,70.31
1638.0,70.3
1640.0,70.31
1642.0,70.31
1644.0,70.3
1646.0,70.29
1648.0,70.22
1650.0,70.16
1652.0,70.095
1654.0,70.05
1656.0,70.01
1658.0,70.0
1660.0,69.985
1662.0,69.97
1664.0,69.95
1666.0,69.91
1668.0,69.87
1670.0,69.84
1672.0,69.76
1674.0,69.73
1676.0,69.71
1678.0,69.71
1680.0,69.7
1682.0,69.69
1684.0,69.67
1686.0,69.66
1688.0,69.68
1690.0,69.65
1692.0,69.61
1694.0,69.59
1696.0,69.555
1698.0,69.555
1700.0,69.51
1702.0,69.46
1704.0,69.43
1706.0,69.42
1708.0,69.4
1710.0,69.375
1712.0,69.34
1714.0,69.31
1716.0,69.25
1718.0,69.19
1720.0,69.12
1722.0,69.05
1724.0,69.015
1726.0,69.01
1728.0,69.0
1730.0,68.98
1732.0,68.94
1734.0,68.9
1736.0,68.86
1738.0,68.82
1740.0,68.765
1742.0,68.72
1744.0,68.7
1746.0,68.68
1748.0,68.67
1750.0,68.66
1752.0,68.61
1754.0,68.56
1756.0,68.53
1758.0,68.51
1760.0,68.48
1762.0,68.45
1764.0,68.43
1766.0,68.405
1768.0,68.4
1770.0,68.36
1772.0,68.35
1774.0,68.335
1776.0,68.33
1778.0,68.335
1780.0,68.335
1782.0,68.335
1784.0,68.33
1786.0,68.29
1788.0,68.27
1790.0,68.26
1792.0,68.24
1794.0,68.24
1796.0,68.21
1798.0,68.15
1800.0,68.11
1802.0,68.07
1804.0,68.04
1806.0,68.02
1808.0,67.975
1810.0,67.92
1812.0,67.85
1814.0,67.77
1816.0,67.74
1818.0,67.65
1820.0,67.55
1822.0,67.45
1824.0,67.35
1826.0,67.28
1828.0,67.21
1830.0,67.11
1832.0,67.02
1834.0,66.91
1836.0,66.825
1838.0,66.77
1840.0,66.69
1842.0,66.59
1844.0,66.44
1846.0,66.36
1848.0,66.3
1850.0,66.215
1852.0,66.12
1854.0,66.0
1856.0,65.87
1858.0,65.75
1860.0,65.675
1862.0,65.605
1864.0,65.54
1866.0,65.425
1868.0,65.3
1870.0,65.14
1872.0,64.96
1874.0,64.74
1876.0,64.55
1878.0,64.33
1880.0,64.11
1882.0,63.88
1884.0,63.62
1886.0,63.39
1888.0,63.17
1890.0,63.01
1892.0,62.89
1894.0,62.82
1896.0,62.81
1898.0,62.875
1900.0,62.945
1902.0,63.03
1904.0,63.03
1906.0,63.02
1908.0,62.945
1910.0,62.83
1912.0,62.69
1914.0,62.55
1916.0,62.42
1918.0,62.28
1920.0,62.12
1922.0,62.0
1924.0,61.9
1926.0,61.79
1928.0,61.67
1930.0,61.57
1932.0,61.47
1934.0,61.36
1936.0,61.29
1938.0,61.25
1940.0,61.2
1942.0,61.115
1944.0,61.06
1946.0,61.005
1948.0,60.97
1950.0,60.91
1952.0,60.82
1954.0,60.71
1956.0,60.65
1958.0,60.6
1960.0,60.55
1962.0,60.48
1964.0,60.39
1966.0,60.34
1968.0,60.325
1970.0,60.26
1972.0,60.18
1974.0,60.06
1976.0,59.965
1978.0,59.94
1980.0,59.9
1982.0,59.85
1984.0,59.76
1986.0,59.66
1988.0,59.63
1990.0,59.64
1992.0,59.62
1994.0,59.56
1996.0,59.45
1998.0,59.34
2000.0,59.2
2002.0,59.08
2004.0,58.995
2006.0,58.91
2008.0,58.84
2010.0,58.81
2012.0,58.8
2014.0,58.88
2016.0,58.93
2018.0,59.03
2020.0,59.19
2022.0,59.35
2024.0,59.53
2026.0,59.67
2028.0,59.78
2030.0,59.89
2032.0,59.93
2034.0,59.96
2036.0,60.02
2038.0,60.08
2040.0,60.11
2042.0,60.13
2044.0,60.16
2046.0,60.215
2048.0,60.25
2050.0,60.24
2052.0,60.26
2054.0,60.29
2056.0,60.32
2058.0,60.32
2060.0,60.31
2062.0,60.29
2064.0,60.3
2066.0,60.34
2068.0,60.38
2070.0,60.39
2072.0,60.36
2074.0,60.36
2076.0,60.37
2078.0,60.39
2080.0,60.37
2082.0,60.37
2084.0,60.39
2086.0,60.46
2088.0,60.5
2090.0,60.46
2092.0,60.44
2094.0,60.395
2096.0,60.37
2098.0,60.35
2100.0,60.34
2102.0,60.325
2104.0,60.28
2106.0,60.27
2108.0,60.26
2110.0,60.28
2112.0,60.23
2114.0,60.18
2116.0,60.16
2118.0,60.14
2120.0,60.13
2122.0,60.13
2124.0,60.13
2126.0,60.1
2128.0,60.0
2130.0,59.93
2132.0,59.92
2134.0,59.89
2136.0,59.82
2138.0,59.69
2140.0,59.6
2142.0,59.53
2144.0,59.42
2146.0,59.33
2148.0,59.19
2150.0,59.11
2152.0,59.03
2154.0,58.99
2156.0,58.94
2158.0,58.85
2160.0,58.77
2162.0,58.69
2164.0,58.635
2166.0,58.62
2168.0,58.58
2170.0,58.565
2172.0,58.56
2174.0,58.565
2176.0,58.62
2178.0,58.67
2180.0,58.72
2182.0,58.73
2184.0,58.72
2186.0,58.72
2188.0,58.73
2190.0,58.69
2192.0,58.65
2194.0,58.52
2196.0,58.385
2198.0,58.3
2200.0,58.19
2202.0,58.07
2204.0,57.96
2206.0,57.87
2208.0,57.82
2210.0,57.75
2212.0,57.65
2214.0,57.53
2216.0,57.37
2218.0,57.22
2220.0,57.055
2222.0,56.87
2224.0,56.68
2226.0,56.54
2228.0,56.33
2230.0,56.11
2232.0,55.89
2234.0,55.72
2236.0,55.52
2238.0,55.34
2240.0,55.1
2242.0,54.86
2244.0,54.61
2246.0,54.38
2248.0,54.07
2250.0,53.76
2252.0,53.51
2254.0,53.28
2256.0,53.01
2258.0,52.67
2260.0,52.38
2262.0,52.12
2264.0,51.89
2266.0,51.58
2268.0,51.27
2270.0,51.04
2272.0,50.83
2274.0,50.53
2276.0,50.11
2278.0,49.74
2280.0,49.44
2282.0,49.16
2284.0,48.85
2286.0,48.45
2288.0,48.09
2290.0,47.72
2292.0,47.35
2294.0,47.0
2296.0,46.67
2298.0,46.38
2300.0,46.12
2302.0,45.88
2304.0,45.62
2306.0,45.34
2308.0,45.02
2310.0,44.74
2312.0,44.54
2314.0,44.36
2316.0,44.17
2318.0,43.97
2320.0,43.77
2322.0,43.61
2324.0,43.47
2326.0,43.32
2328.0,43.19
2330.0,43.17
2332.0,43.1
2334.0,43.02
2336.0,42.89
2338.0,42.74
2340.0,42.65
2342.0,42.49
2344.0,42.35
2346.0,42.17
2348.0,42.05
2350.0,41.88
2352.0,41.68
2354.0,41.46
2356.0,41.28
2358.0,41.13
2360.0,40.98
2362.0,40.88
2364.0,40.82
2366.0,40.77
2368.0,40.75
2370.0,40.77
2372.0,40.9
2374.0,41.11
2376.0,41.43
2378.0,41.78
2380.0,42.18
2382.0,42.72
2384.0,43.37
2386.0,44.19
2388.0,45.02
2390.0,45.93
2392.0,46.75
2394.0,47.46
2396.0,48.07
2398.0,48.62
2400.0,48.97
2402.0,49.16
2404.0,49.33
2406.0,49.37
2408.0,49.37
2410.0,49.23
2412.0,49.09
2414.0,48.91
2416.0,48.8
2418.0,48.66
2420.0,48.41
2422.0,48.12
2424.0,47.85
2426.0,47.58
2428.0,47.32
2430.0,47.09
2432.0,46.92
2434.0,46.65
2436.0,46.35
2438.0,46.08
2440.0,45.86
2442.0,45.53
2444.0,45.15
2446.0,44.74
2448.0,44.38
2450.0,44.09
2452.0,43.8
2454.0,43.38
2456.0,42.89
2458.0,42.5
2460.0,42.07
2462.0,41.55
2464.0,41.04
2466.0,40.61
2468.0,40.055
2470.0,39.47
2472.0,38.89
2474.0,38.44
2476.0,38.02
2478.0,37.65
2480.0,37.3
2482.0,36.88
2484.0,36.5
2486.0,36.13
2488.0,35.86
2490.0,35.6
2492.0,35.295
2494.0,34.97
2496.0,34.74
2498.0,34.53
2500.0,34.3
