wavelength,reflectivity
1300.0,67.05
1302.0,66.96
1304.0,66.76
1306.0,66.84
1308.0,66.85
1310.0,66.84
1312.0,66.94
1314.0,67.14
1316.0,66.89
1318.0,66.85
1320.0,66.84
1322.0,66.7
1324.0,66.8
1326.0,66.93
1328.0,66.77
1330.0,66.71
1332.0,66.68
1334.0,66.69
1336.0,66.75
1338.0,66.81
1340.0,66.82
1342.0,66.86
1344.0,66.87
1346.0,66.86
1348.0,66.825
1350.0,66.8
1352.0,66.81
1354.0,66.82
1356.0,66.81
1358.0,66.825
1360.0,66.86
1362.0,66.84
1364.0,66.84
1366.0,66.825
1368.0,66.79
1370.0,66.79
1372.0,66.81
1374.0,66.79
1376.0,66.76
1378.0,66.75
1380.0,66.75
1382.0,66.76
1384.0,66.77
1386.0,66.77
1388.0,66.72
1390.0,66.68
1392.0,66.66
1394.0,66.645
1396.0,66.64
1398.0,66.6
1400.0,66.54
1402.0,66.49
1404.0,66.465
1406.0,66.465
1408.0,66.44
1410.0,66.42
1412.0,66.395
1414.0,66.37
1416.0,66.38
1418.0,66.395
1420.0,66.41
1422.0,66.42
1424.0,66.42
1426.0,66.42
1428.0,66.46
1430.0,66.53
1432.0,66.55
1434.0,66.56
1436.0,66.57
1438.0,66.61
1440.0,66.62
1442.0,66.62
1444.0,66.61
1446.0,66.61
1448.0,66.64
1450.0,66.67
1452.0,66.68
1454.0,66.67
1456.0,66.645
1458.0,66.64
1460.0,66.67
1462.0,66.72
1464.0,66.71
1466.0,66.73
1468.0,66.74
1470.0,66.75
1472.0,66.78
1474.0,66.81
1476.0,66.825
1478.0,66.85
1480.0,66.88
1482.0,66.89
1484.0,66.89
1486.0,66.88
1488.0,66.91
1490.0,66.96
1492.0,66.98
1494.0,67.02
1496.0,67.03
1498.0,67.005
1500.0,67.02
1502.0,67.05
1504.0,67.04
1506.0,67.1
1508.0,67.12
1510.0,67.185
1512.0,67.21
1514.0,67.24
1516.0,67.25
1518.0,67.23
1520.0,67.22
1522.0,67.21
1524.0,67.22
1526.0,67.255
1528.0,67.28
1530.0,67.33
1532.0,67.34
1534.0,67.3
1536.0,67.31
1538.0,67.34
1540.0,67.34
1542.0,67.33
1544.0,67.36
1546.0,67.365
1548.0,67.38
1550.0,67.41
1552.0,67.4
1554.0,67.39
1556.0,67.365
1558.0,67.34
1560.0,67.31
1562.0,67.32
1564.0,67.36
1566.0,67.39
1568.0,67.38
1570.0,67.41
1572.0,67.41
1574.0,67.39
1576.0,67.35
1578.0,67.32
1580.0,67.365
1582.0,67.435
1584.0,67.47
1586.0,67.46
1588.0,67.435
1590.0,67.48
1592.0,67.58
1594.0,67.63
1596.0,67.67
1598.0,67.66
1600.0,67.63
1602.0,67.615
1604.0,67.615
1606.0,67.63
1608.0,67.64
1610.0,67.6
1612.0,67.57
1614.0,67.57
1616.0,67.64
1618.0,67.71
1620.0,67.69
1622.0,67.61
1624.0,67.59
1626.0,67.59
1628.0,67.61
1630.0,67.6
1632.0,67.57
1634.0,67.56
1636.0,67.54
1638.0,67.5
1640.0,67.49
1642.0,67.52
1644.0,67.56
1646.0,67.52
1648.0,67.43
1650.0,67.365
1652.0,67.38
1654.0,67.39
1656.0,67.35
1658.0,67.31
1660.0,67.32
1662.0,67.34
1664.0,67.3
1666.0,67.185
1668.0,67.13
1670.0,67.15
1672.0,67.17
1674.0,67.16
1676.0,67.15
1678.0,67.16
1680.0,67.14
1682.0,67.13
1684.0,67.13
1686.0,67.15
1688.0,67.2
1690.0,67.2
1692.0,67.16
1694.0,67.13
1696.0,67.09
1698.0,67.05
1700.0,67.09
1702.0,67.14
1704.0,67.13
1706.0,67.09
1708.0,67.05
1710.0,67.03
1712.0,67.04
1714.0,66.98
1716.0,66.9
1718.0,66.87
1720.0,66.91
1722.0,66.89
1724.0,66.85
1726.0,66.79
1728.0,66.77
1730.0,66.79
1732.0,66.81
1734.0,66.81
1736.0,66.82
1738.0,66.77
1740.0,66.74
1742.0,66.75
1744.0,66.75
1746.0,66.74
1748.0,66.7
1750.0,66.66
1752.0,66.71
1754.0,66.74
1756.0,66.75
1758.0,66.72
1760.0,66.71
1762.0,66.73
1764.0,66.72
1766.0,66.74
1768.0,66.74
1770.0,66.71
1772.0,66.71
1774.0,66.69
1776.0,66.71
1778.0,66.72
1780.0,66.74
1782.0,66.82
1784.0,66.88
1786.0,66.91
1788.0,66.93
1790.0,66.98
1792.0,67.0
1794.0,67.04
1796.0,67.03
1798.0,66.95
1800.0,66.92
1802.0,66.89
1804.0,66.88
1806.0,66.89
1808.0,66.87
1810.0,66.82
1812.0,66.78
1814.0,66.7
1816.0,66.645
1818.0,66.62
1820.0,66.54
1822.0,66.45
1824.0,66.37
1826.0,66.3
1828.0,66.27
1830.0,66.19
1832.0,66.06
1834.0,65.97
1836.0,65.89
1838.0,65.81
1840.0,65.75
1842.0,65.66
1844.0,65.58
1846.0,65.47
1848.0,65.4
1850.0,65.34
1852.0,65.315
1854.0,65.27
1856.0,65.13
1858.0,64.99
1860.0,64.88
1862.0,64.78
1864.0,64.635
1866.0,64.455
1868.0,64.22
1870.0,63.98
1872.0,63.735
1874.0,63.45
1876.0,63.18
1878.0,62.945
1880.0,62.76
1882.0,62.66
1884.0,62.64
1886.0,62.61
1888.0,62.69
1890.0,62.76
1892.0,62.86
1894.0,62.96
1896.0,63.02
1898.0,63.16
1900.0,63.305
1902.0,63.52
1904.0,63.7
1906.0,63.83
1908.0,63.93
1910.0,63.98
1912.0,64.05
1914.0,64.12
1916.0,64.16
1918.0,64.19
1920.0,64.23
1922.0,64.26
1924.0,64.3
1926.0,64.29
1928.0,64.25
1930.0,64.25
1932.0,64.24
1934.0,64.24
1936.0,64.26
1938.0,64.23
1940.0,64.25
1942.0,64.25
1944.0,64.3
1946.0,64.32
1948.0,64.24
1950.0,64.26
1952.0,64.22
1954.0,64.23
1956.0,64.23
1958.0,64.16
1960.0,64.15
1962.0,64.07
1964.0,63.98
1966.0,63.94
1968.0,63.87
1970.0,63.78
1972.0,63.66
1974.0,63.58
1976.0,63.59
1978.0,63.61
1980.0,63.58
1982.0,63.54
1984.0,63.48
1986.0,63.485
1988.0,63.51
1990.0,63.45
1992.0,63.35
1994.0,63.24
1996.0,63.11
1998.0,62.98
2000.0,62.8
2002.0,62.58
2004.0,62.335
2006.0,62.08
2008.0,61.83
2010.0,61.52
2012.0,61.22
2014.0,60.91
2016.0,60.72
2018.0,60.79
2020.0,61.06
2022.0,61.45
2024.0,61.93
2026.0,62.43
2028.0,62.94
2030.0,63.33
2032.0,63.6
2034.0,63.86
2036.0,64.16
2038.0,64.4
2040.0,64.63
2042.0,64.815
2044.0,64.91
2046.0,64.99
2048.0,65.01
2050.0,65.065
2052.0,65.1
2054.0,65.06
2056.0,65.05
2058.0,65.04
2060.0,65.12
2062.0,65.15
2064.0,65.14
2066.0,65.14
2068.0,65.14
2070.0,65.2
2072.0,65.17
2074.0,65.13
2076.0,65.11
2078.0,65.12
2080.0,65.2
2082.0,65.18
2084.0,65.13
2086.0,65.02
2088.0,64.99
2090.0,64.98
2092.0,64.97
2094.0,64.94
2096.0,64.87
2098.0,64.8
2100.0,64.72
2102.0,64.67
2104.0,64.63
2106.0,64.56
2108.0,64.49
2110.0,64.39
2112.0,64.32
2114.0,64.275
2116.0,64.18
2118.0,64.14
2120.0,64.07
2122.0,64.01
2124.0,63.96
2126.0,63.845
2128.0,63.78
2130.0,63.71
2132.0,63.69
2134.0,63.63
2136.0,63.57
2138.0,63.52
2140.0,63.41
2142.0,63.29
2144.0,63.16
2146.0,63.09
2148.0,63.01
2150.0,62.89
2152.0,62.695
2154.0,62.47
2156.0,62.26
2158.0,62.06
2160.0,61.9
2162.0,61.7
2164.0,61.46
2166.0,61.15
2168.0,60.755
2170.0,60.31
2172.0,59.87
2174.0,59.47
2176.0,59.19
2178.0,58.995
2180.0,58.93
2182.0,58.97
2184.0,59.02
2186.0,59.12
2188.0,59.175
2190.0,59.37
2192.0,59.54
2194.0,59.71
2196.0,59.85
2198.0,60.0
2200.0,60.145
2202.0,60.19
2204.0,60.17
2206.0,60.09
2208.0,60.01
2210.0,59.855
2212.0,59.71
2214.0,59.51
2216.0,59.245
2218.0,58.995
2220.0,58.76
2222.0,58.56
2224.0,58.31
2226.0,58.06
2228.0,57.79
2230.0,57.55
2232.0,57.27
2234.0,57.01
2236.0,56.76
2238.0,56.46
2240.0,56.17
2242.0,55.85
2244.0,55.52
2246.0,55.14
2248.0,54.77
2250.0,54.37
2252.0,53.94
2254.0,53.535
2256.0,53.13
2258.0,52.74
2260.0,52.385
2262.0,51.98
2264.0,51.56
2266.0,51.1
2268.0,50.72
2270.0,50.3
2272.0,49.83
2274.0,49.37
2276.0,48.96
2278.0,48.56
2280.0,48.2
2282.0,47.87
2284.0,47.45
2286.0,47.03
2288.0,46.61
2290.0,46.29
2292.0,45.99
2294.0,45.7
2296.0,45.37
2298.0,45.05
2300.0,44.72
2302.0,44.47
2304.0,44.22
2306.0,43.93
2308.0,43.61
2310.0,43.31
2312.0,42.99
2314.0,42.64
2316.0,42.3
2318.0,41.87
2320.0,41.42
2322.0,40.91
2324.0,40.4
2326.0,39.95
2328.0,39.48
2330.0,38.97
2332.0,38.42
2334.0,37.82
2336.0,37.2
2338.0,36.56
2340.0,35.98
2342.0,35.52
2344.0,35.32
2346.0,35.35
2348.0,35.49
2350.0,35.72
2352.0,36.09
2354.0,36.56
2356.0,37.055
2358.0,37.595
2360.0,38.205
2362.0,38.93
2364.0,39.66
2366.0,40.38
2368.0,41.11
2370.0,42.0
2372.0,42.99
2374.0,44.08
2376.0,45.13
2378.0,46.21
2380.0,47.24
2382.0,48.29
2384.0,49.25
2386.0,50.14
2388.0,50.96
2390.0,51.68
2392.0,52.37
2394.0,52.96
2396.0,53.34
2398.0,53.67
2400.0,53.94
2402.0,54.24
2404.0,54.38
2406.0,54.44
2408.0,54.46
2410.0,54.46
2412.0,54.44
2414.0,54.41
2416.0,54.31
2418.0,54.16
2420.0,53.95
2422.0,53.77
2424.0,53.56
2426.0,53.38
2428.0,53.14
2430.0,52.94
2432.0,52.77
2434.0,52.5
2436.0,52.12
2438.0,51.775
2440.0,51.55
2442.0,51.2
2444.0,50.76
2446.0,50.34
2448.0,49.98
2450.0,49.55
2452.0,48.95
2454.0,48.26
2456.0,47.56
2458.0,46.81
2460.0,45.99
2462.0,45.14
2464.0,44.31
2466.0,43.38
2468.0,42.43
2470.0,41.54
2472.0,40.61
2474.0,39.75
2476.0,38.94
2478.0,38.24
2480.0,37.5
2482.0,36.95
2484.0,36.53
2486.0,36.16
2488.0,35.87
2490.0,35.6
2492.0,35.43
2494.0,35.2
2496.0,35.04
2498.0,34.75
2500.0,34.53
