wavelength,reflectivity
1300.0,43.35
1302.0,43.45
1304.0,43.26
1306.0,43.1
1308.0,43.07
1310.0,43.07
1312.0,43.05
1314.0,43.05
1316.0,42.94
1318.0,43.03
1320.0,43.01
1322.0,42.78
1324.0,42.71
1326.0,42.78
1328.0,42.76
1330.0,42.79
1332.0,42.64
1334.0,42.56
1336.0,42.51
1338.0,42.46
1340.0,42.41
1342.0,42.32
1344.0,42.3
1346.0,42.31
1348.0,42.32
1350.0,42.36
1352.0,42.4
1354.0,42.44
1356.0,42.48
1358.0,42.47
1360.0,42.45
1362.0,42.44
1364.0,42.4
1366.0,42.34
1368.0,42.31
1370.0,42.31
1372.0,42.34
1374.0,42.38
1376.0,42.42
1378.0,42.43
1380.0,42.44
1382.0,42.42
1384.0,42.39
1386.0,42.33
1388.0,42.25
1390.0,42.09
1392.0,41.69
1394.0,40.755
1396.0,39.12
1398.0,36.8
1400.0,34.32
1402.0,32.54
1404.0,32.11
1406.0,33.14
1408.0,35.15
1410.0,37.38
1412.0,39.25
1414.0,40.57
1416.0,41.39
1418.0,41.88
1420.0,42.17
1422.0,42.33
1424.0,42.43
1426.0,42.52
1428.0,42.54
1430.0,42.57
1432.0,42.56
1434.0,42.59
1436.0,42.63
1438.0,42.7
1440.0,42.71
1442.0,42.71
1444.0,42.72
1446.0,42.73
1448.0,42.73
1450.0,42.76
1452.0,42.78
1454.0,42.79
1456.0,42.81
1458.0,42.79
1460.0,42.76
1462.0,42.75
1464.0,42.75
1466.0,42.75
1468.0,42.76
1470.0,42.79
1472.0,42.8
1474.0,42.83
1476.0,42.86
1478.0,42.87
1480.0,42.88
1482.0,42.89
1484.0,42.87
1486.0,42.88
1488.0,42.91
1490.0,42.94
1492.0,42.94
1494.0,42.91
1496.0,42.91
1498.0,42.92
1500.0,42.94
1502.0,42.97
1504.0,42.98
1506.0,43.03
1508.0,43.05
1510.0,43.07
1512.0,43.07
1514.0,43.05
1516.0,43.05
1518.0,43.08
1520.0,43.1
1522.0,43.11
1524.0,43.08
1526.0,43.06
1528.0,43.07
1530.0,43.08
1532.0,43.09
1534.0,43.08
1536.0,43.06
1538.0,43.06
1540.0,43.08
1542.0,43.09
1544.0,43.1
1546.0,43.09
1548.0,43.09
1550.0,43.09
1552.0,43.1
1554.0,43.1
1556.0,43.1
1558.0,43.11
1560.0,43.11
1562.0,43.12
1564.0,43.14
1566.0,43.13
1568.0,43.15
1570.0,43.2
1572.0,43.18
1574.0,43.15
1576.0,43.15
1578.0,43.12
1580.0,43.11
1582.0,43.1
1584.0,43.07
1586.0,43.07
1588.0,43.07
1590.0,43.08
1592.0,43.08
1594.0,43.08
1596.0,43.05
1598.0,43.04
1600.0,43.04
1602.0,43.09
1604.0,43.12
1606.0,43.14
1608.0,43.14
1610.0,43.14
1612.0,43.14
1614.0,43.16
1616.0,43.16
1618.0,43.16
1620.0,43.17
1622.0,43.19
1624.0,43.22
1626.0,43.22
1628.0,43.2
1630.0,43.19
1632.0,43.2
1634.0,43.23
1636.0,43.25
1638.0,43.26
1640.0,43.23
1642.0,43.19
1644.0,43.16
1646.0,43.14
1648.0,43.2
1650.0,43.21
1652.0,43.22
1654.0,43.16
1656.0,43.12
1658.0,43.11
1660.0,43.13
1662.0,43.16
1664.0,43.15
1666.0,43.11
1668.0,43.1
1670.0,43.04
1672.0,42.98
1674.0,42.88
1676.0,42.73
1678.0,42.5
1680.0,42.24
1682.0,42.01
1684.0,41.9
1686.0,41.92
1688.0,42.09
1690.0,42.32
1692.0,42.56
1694.0,42.77
1696.0,42.91
1698.0,43.01
1700.0,43.08
1702.0,43.13
1704.0,43.15
1706.0,43.16
1708.0,43.17
1710.0,43.18
1712.0,43.16
1714.0,43.14
1716.0,43.11
1718.0,43.1
1720.0,43.07
1722.0,43.03
1724.0,42.99
1726.0,43.0
1728.0,43.02
1730.0,43.02
1732.0,43.03
1734.0,43.04
1736.0,43.05
1738.0,43.07
1740.0,43.11
1742.0,43.15
1744.0,43.17
1746.0,43.18
1748.0,43.15
1750.0,43.16
1752.0,43.17
1754.0,43.18
1756.0,43.16
1758.0,43.14
1760.0,43.13
1762.0,43.12
1764.0,43.12
1766.0,43.13
1768.0,43.13
1770.0,43.14
1772.0,43.12
1774.0,43.13
1776.0,43.16
1778.0,43.18
1780.0,43.22
1782.0,43.21
1784.0,43.2
1786.0,43.17
1788.0,43.16
1790.0,43.15
1792.0,43.16
1794.0,43.16
1796.0,43.15
1798.0,43.13
1800.0,43.14
1802.0,43.17
1804.0,43.2
1806.0,43.21
1808.0,43.2
1810.0,43.2
1812.0,43.19
1814.0,43.17
1816.0,43.16
1818.0,43.15
1820.0,43.11
1822.0,43.09
1824.0,43.08
1826.0,43.1
1828.0,43.11
1830.0,43.1
1832.0,43.08
1834.0,43.07
1836.0,43.05
1838.0,43.01
1840.0,43.01
1842.0,42.99
1844.0,42.97
1846.0,42.95
1848.0,42.93
1850.0,42.94
1852.0,42.99
1854.0,43.02
1856.0,43.02
1858.0,43.0
1860.0,42.94
1862.0,42.94
1864.0,42.92
1866.0,42.92
1868.0,42.88
1870.0,42.86
1872.0,42.86
1874.0,42.85
1876.0,42.82
1878.0,42.8
1880.0,42.75
1882.0,42.73
1884.0,42.73
1886.0,42.69
1888.0,42.65
1890.0,42.57
1892.0,42.5
1894.0,42.44
1896.0,42.38
1898.0,42.31
1900.0,42.24
1902.0,42.21
1904.0,42.15
1906.0,42.13
1908.0,42.08
1910.0,42.03
1912.0,42.04
1914.0,42.03
1916.0,42.04
1918.0,42.03
1920.0,42.05
1922.0,42.05
1924.0,42.04
1926.0,41.97
1928.0,41.94
1930.0,41.96
1932.0,41.94
1934.0,41.95
1936.0,41.94
1938.0,41.94
1940.0,41.96
1942.0,41.97
1944.0,41.97
1946.0,41.95
1948.0,41.95
1950.0,41.95
1952.0,41.99
1954.0,41.98
1956.0,41.96
1958.0,41.93
1960.0,41.95
1962.0,41.98
1964.0,41.99
1966.0,42.0
1968.0,42.0
1970.0,42.02
1972.0,42.0
1974.0,41.99
1976.0,42.01
1978.0,42.02
1980.0,42.05
1982.0,42.09
1984.0,42.14
1986.0,42.19
1988.0,42.21
1990.0,42.21
1992.0,42.19
1994.0,42.15
1996.0,42.11
1998.0,42.1
2000.0,42.1
2002.0,42.06
2004.0,42.0
2006.0,41.95
2008.0,41.95
2010.0,41.97
2012.0,41.97
2014.0,41.94
2016.0,41.91
2018.0,41.91
2020.0,41.95
2022.0,41.96
2024.0,41.94
2026.0,41.96
2028.0,41.97
2030.0,41.97
2032.0,41.95
2034.0,41.87
2036.0,41.78
2038.0,41.68
2040.0,41.58
2042.0,41.51
2044.0,41.4
2046.0,41.22
2048.0,41.01
2050.0,40.77
2052.0,40.51
2054.0,40.18
2056.0,39.72
2058.0,39.13
2060.0,38.36
2062.0,37.36
2064.0,35.94
2066.0,33.98
2068.0,31.345
2070.0,28.0
2072.0,24.04
2074.0,19.79
2076.0,15.93
2078.0,13.075
2080.0,11.78
2082.0,12.35
2084.0,14.47
2086.0,17.57
2088.0,21.07
2090.0,24.55
2092.0,27.62
2094.0,30.15
2096.0,32.13
2098.0,33.64
2100.0,34.8
2102.0,35.69
2104.0,36.39
2106.0,36.96
2108.0,37.49
2110.0,37.96
2112.0,38.295
2114.0,38.54
2116.0,38.655
2118.0,38.77
2120.0,38.81
2122.0,38.85
2124.0,38.81
2126.0,38.6
2128.0,38.25
2130.0,37.79
2132.0,37.27
2134.0,36.66
2136.0,35.99
2138.0,35.34
2140.0,34.8
2142.0,34.38
2144.0,34.03
2146.0,33.74
2148.0,33.45
2150.0,33.17
2152.0,32.9
2154.0,32.72
2156.0,32.71
2158.0,32.9
2160.0,33.285
2162.0,33.85
2164.0,34.415
2166.0,34.89
2168.0,35.2
2170.0,35.37
2172.0,35.46
2174.0,35.52
2176.0,35.565
2178.0,35.68
2180.0,35.835
2182.0,36.06
2184.0,36.26
2186.0,36.46
2188.0,36.66
2190.0,36.88
2192.0,37.05
2194.0,37.055
2196.0,36.99
2198.0,36.8
2200.0,36.55
2202.0,36.28
2204.0,36.07
2206.0,35.95
2208.0,35.87
2210.0,35.82
2212.0,35.76
2214.0,35.72
2216.0,35.8
2218.0,36.02
2220.0,36.41
2222.0,36.86
2224.0,37.36
2226.0,37.85
2228.0,38.25
2230.0,38.58
2232.0,38.83
2234.0,39.03
2236.0,39.13
2238.0,39.15
2240.0,39.11
2242.0,39.15
2244.0,39.19
2246.0,39.175
2248.0,39.02
2250.0,38.79
2252.0,38.41
2254.0,37.73
2256.0,36.7
2258.0,35.655
2260.0,34.98
2262.0,35.12
2264.0,35.72
2266.0,36.55
2268.0,37.21
2270.0,37.73
2272.0,38.09
2274.0,38.34
2276.0,38.475
2278.0,38.56
2280.0,38.62
2282.0,38.53
2284.0,38.385
2286.0,38.14
2288.0,37.85
2290.0,37.48
2292.0,37.08
2294.0,36.66
2296.0,36.25
2298.0,35.92
2300.0,35.655
2302.0,35.54
2304.0,35.41
2306.0,35.27
2308.0,35.15
2310.0,34.95
2312.0,34.72
2314.0,34.46
2316.0,34.18
2318.0,33.87
2320.0,33.535
2322.0,33.285
2324.0,33.12
2326.0,33.04
2328.0,32.98
2330.0,32.925
2332.0,32.835
2334.0,32.87
2336.0,32.88
2338.0,32.87
2340.0,32.745
2342.0,32.71
2344.0,32.69
2346.0,32.7
2348.0,32.74
2350.0,32.86
2352.0,33.04
2354.0,33.08
2356.0,33.01
2358.0,32.925
2360.0,32.83
2362.0,32.63
2364.0,32.39
2366.0,32.25
2368.0,32.18
2370.0,32.04
2372.0,31.775
2374.0,31.52
2376.0,31.43
2378.0,31.33
2380.0,31.33
2382.0,31.37
2384.0,31.45
2386.0,31.5
2388.0,31.49
2390.0,31.4
2392.0,31.22
2394.0,31.09
2396.0,30.96
2398.0,30.74
2400.0,30.55
2402.0,30.375
2404.0,30.285
2406.0,30.19
2408.0,29.98
2410.0,29.7
2412.0,29.25
2414.0,28.78
2416.0,28.38
2418.0,28.02
2420.0,27.78
2422.0,27.6
2424.0,27.54
2426.0,27.49
2428.0,27.49
2430.0,27.465
2432.0,27.49
2434.0,27.55
2436.0,27.67
2438.0,27.85
2440.0,27.97
2442.0,27.9
2444.0,27.57
2446.0,27.15
2448.0,26.82
2450.0,26.43
2452.0,25.99
2454.0,25.4
2456.0,24.82
2458.0,24.14
2460.0,23.53
2462.0,23.05
2464.0,22.69
2466.0,22.31
2468.0,21.92
2470.0,21.71
2472.0,21.65
2474.0,21.65
2476.0,21.48
2478.0,21.27
2480.0,21.02
2482.0,20.62
2484.0,20.19
2486.0,19.84
2488.0,19.47
2490.0,18.9
2492.0,18.11
2494.0,17.43
2496.0,16.94
2498.0,16.54
2500.0,16.27
