wavelength,reflectivity
1300.0,73.83
1302.0,73.37
1304.0,73.61
1306.0,74.52
1308.0,74.405
1310.0,73.96
1312.0,73.81
1314.0,73.81
1316.0,73.86
1318.0,74.295
1320.0,74.54
1322.0,74.36
1324.0,74.045
1326.0,74.07
1328.0,73.97
1330.0,73.84
1332.0,73.83
1334.0,73.81
1336.0,73.59
1338.0,73.28
1340.0,73.09
1342.0,72.87
1344.0,72.74
1346.0,72.74
1348.0,72.715
1350.0,72.52
1352.0,72.355
1354.0,72.34
1356.0,72.12
1358.0,71.925
1360.0,71.97
1362.0,71.925
1364.0,71.855
1366.0,71.84
1368.0,71.62
1370.0,71.25
1372.0,70.81
1374.0,70.37
1376.0,69.75
1378.0,69.01
1380.0,68.3
1382.0,67.34
1384.0,66.13
1386.0,64.8
1388.0,63.24
1390.0,61.3
1392.0,59.065
1394.0,56.59
1396.0,53.95
1398.0,51.3
1400.0,48.8
1402.0,46.36
1404.0,44.02
1406.0,41.9
1408.0,40.01
1410.0,38.23
1412.0,36.59
1414.0,35.12
1416.0,33.76
1418.0,32.49
1420.0,31.39
1422.0,30.55
1424.0,29.78
1426.0,29.13
1428.0,28.67
1430.0,28.23
1432.0,27.79
1434.0,27.5
1436.0,27.18
1438.0,26.87
1440.0,26.58
1442.0,26.38
1444.0,26.14
1446.0,25.92
1448.0,25.88
1450.0,25.92
1452.0,25.93
1454.0,26.01
1456.0,26.19
1458.0,26.28
1460.0,26.39
1462.0,26.61
1464.0,26.82
1466.0,27.07
1468.0,27.42
1470.0,27.96
1472.0,28.525
1474.0,29.21
1476.0,29.96
1478.0,30.69
1480.0,31.47
1482.0,32.29
1484.0,33.1
1486.0,33.8
1488.0,34.5
1490.0,35.31
1492.0,36.04
1494.0,36.92
1496.0,37.84
1498.0,38.7
1500.0,39.51
1502.0,40.41
1504.0,41.24
1506.0,42.12
1508.0,42.95
1510.0,43.81
1512.0,44.6
1514.0,45.38
1516.0,46.3
1518.0,47.21
1520.0,48.06
1522.0,48.97
1524.0,49.85
1526.0,50.58
1528.0,51.43
1530.0,52.26
1532.0,52.95
1534.0,53.65
1536.0,54.39
1538.0,55.1
1540.0,55.835
1542.0,56.65
1544.0,57.34
1546.0,57.95
1548.0,58.59
1550.0,59.22
1552.0,59.75
1554.0,60.32
1556.0,60.89
1558.0,61.42
1560.0,61.92
1562.0,62.58
1564.0,63.17
1566.0,63.72
1568.0,64.25
1570.0,64.79
1572.0,65.23
1574.0,65.72
1576.0,66.24
1578.0,66.62
1580.0,66.95
1582.0,67.4
1584.0,67.82
1586.0,68.3
1588.0,68.765
1590.0,69.1
1592.0,69.36
1594.0,69.73
1596.0,70.08
1598.0,70.43
1600.0,70.81
1602.0,71.25
1604.0,71.6
1606.0,72.03
1608.0,72.38
1610.0,72.63
1612.0,72.87
1614.0,73.11
1616.0,73.29
1618.0,73.55
1620.0,73.92
1622.0,74.29
1624.0,74.62
1626.0,74.91
1628.0,75.11
1630.0,75.31
1632.0,75.52
1634.0,75.72
1636.0,75.9
1638.0,75.985
1640.0,76.25
1642.0,76.415
1644.0,76.58
1646.0,76.84
1648.0,77.02
1650.0,77.205
1652.0,77.43
1654.0,77.59
1656.0,77.7
1658.0,77.8
1660.0,77.92
1662.0,77.94
1664.0,78.13
1666.0,78.37
1668.0,78.51
1670.0,78.68
1672.0,78.93
1674.0,78.965
1676.0,79.04
1678.0,79.12
1680.0,79.14
1682.0,79.1
1684.0,79.12
1686.0,79.17
1688.0,79.23
1690.0,79.43
1692.0,79.56
1694.0,79.6
1696.0,79.685
1698.0,79.8
1700.0,79.72
1702.0,79.61
1704.0,79.6
1706.0,79.52
1708.0,79.54
1710.0,79.67
1712.0,79.65
1714.0,79.65
1716.0,79.74
1718.0,79.67
1720.0,79.65
1722.0,79.65
1724.0,79.49
1726.0,79.3
1728.0,79.12
1730.0,79.03
1732.0,78.785
1734.0,78.66
1736.0,78.55
1738.0,78.33
1740.0,78.16
1742.0,77.91
1744.0,77.61
1746.0,77.35
1748.0,77.19
1750.0,76.88
1752.0,76.53
1754.0,76.29
1756.0,76.03
1758.0,75.805
1760.0,75.65
1762.0,75.44
1764.0,75.26
1766.0,75.08
1768.0,74.82
1770.0,74.52
1772.0,74.225
1774.0,74.07
1776.0,73.83
1778.0,73.72
1780.0,73.66
1782.0,73.57
1784.0,73.57
1786.0,73.505
1788.0,73.39
1790.0,73.37
1792.0,73.325
1794.0,73.255
1796.0,73.2
1798.0,73.29
1800.0,73.325
1802.0,73.48
1804.0,73.72
1806.0,73.84
1808.0,74.01
1810.0,74.18
1812.0,74.25
1814.0,74.295
1816.0,74.43
1818.0,74.47
1820.0,74.54
1822.0,74.75
1824.0,74.91
1826.0,75.085
1828.0,75.33
1830.0,75.39
1832.0,75.46
1834.0,75.44
1836.0,75.3
1838.0,75.11
1840.0,75.015
1842.0,74.8
1844.0,74.47
1846.0,74.21
1848.0,73.81
1850.0,73.39
1852.0,73.04
1854.0,72.38
1856.0,71.47
1858.0,70.5
1860.0,69.21
1862.0,67.69
1864.0,66.09
1866.0,64.18
1868.0,62.14
1870.0,59.95
1872.0,57.33
1874.0,54.26
1876.0,50.86
1878.0,46.89
1880.0,42.47
1882.0,37.82
1884.0,32.94
1886.0,27.94
1888.0,23.25
1890.0,18.79
1892.0,14.56
1894.0,10.83
1896.0,7.51
1898.0,4.62
1900.0,2.34
1902.0,0.38
1904.0,-1.13
1906.0,-2.18
1908.0,-3.15
1910.0,-3.83
1912.0,-4.36
1914.0,-4.82
1916.0,-5.15
1918.0,-5.6
1920.0,-5.8
1922.0,-6.02
1924.0,-6.11
1926.0,-6.18
1928.0,-6.18
1930.0,-6.2
1932.0,-6.22
1934.0,-6.13
1936.0,-6.07
1938.0,-5.83
1940.0,-5.63
1942.0,-5.43
1944.0,-5.19
1946.0,-4.88
1948.0,-4.66
1950.0,-4.25
1952.0,-3.92
1954.0,-3.52
1956.0,-3.1
1958.0,-2.71
1960.0,-2.21
1962.0,-1.81
1964.0,-1.24
1966.0,-0.78
1968.0,-0.27
1970.0,0.21
1972.0,0.76
1974.0,1.42
1976.0,1.99
1978.0,2.6
1980.0,3.19
1982.0,3.68
1984.0,4.35
1986.0,4.97
1988.0,5.59
1990.0,6.31
1992.0,6.97
1994.0,7.65
1996.0,8.295
1998.0,8.99
2000.0,9.71
2002.0,10.5
2004.0,11.18
2006.0,11.97
2008.0,12.72
2010.0,13.48
2012.0,14.3
2014.0,15.11
2016.0,15.96
2018.0,16.78
2020.0,17.63
2022.0,18.4
2024.0,19.3
2026.0,20.13
2028.0,21.07
2030.0,21.82
2032.0,22.57
2034.0,23.38
2036.0,24.23
2038.0,25.07
2040.0,25.86
2042.0,26.72
2044.0,27.44
2046.0,28.34
2048.0,29.13
2050.0,30.03
2052.0,30.88
2054.0,31.775
2056.0,32.655
2058.0,33.58
2060.0,34.39
2062.0,35.12
2064.0,35.925
2066.0,36.59
2068.0,37.55
2070.0,38.37
2072.0,39.24
2074.0,40.12
2076.0,40.98
2078.0,41.79
2080.0,42.64
2082.0,43.46
2084.0,44.31
2086.0,45.26
2088.0,45.86
2090.0,46.82
2092.0,47.64
2094.0,48.47
2096.0,49.36
2098.0,50.05
2100.0,50.77
2102.0,51.61
2104.0,52.48
2106.0,53.28
2108.0,54.18
2110.0,54.9
2112.0,55.78
2114.0,56.59
2116.0,57.38
2118.0,58.205
2120.0,59.065
2122.0,59.73
2124.0,60.575
2126.0,61.31
2128.0,61.75
2130.0,62.4
2132.0,62.93
2134.0,63.555
2136.0,63.98
2138.0,64.22
2140.0,64.68
2142.0,65.08
2144.0,65.41
2146.0,65.71
2148.0,65.94
2150.0,66.09
2152.0,66.27
2154.0,66.59
2156.0,66.79
2158.0,66.72
2160.0,66.48
2162.0,66.46
2164.0,66.48
2166.0,66.37
2168.0,66.31
2170.0,66.37
2172.0,66.42
2174.0,66.37
2176.0,66.31
2178.0,66.37
2180.0,66.26
2182.0,66.09
2184.0,66.07
2186.0,66.07
2188.0,65.89
2190.0,65.56
2192.0,65.425
2194.0,65.41
2196.0,65.23
2198.0,64.95
2200.0,64.77
2202.0,64.635
2204.0,64.55
2206.0,64.57
2208.0,64.6
2210.0,64.51
2212.0,64.29
2214.0,64.42
2216.0,64.73
2218.0,64.86
2220.0,64.68
2222.0,64.57
2224.0,64.77
2226.0,65.1
2228.0,65.17
2230.0,65.15
2232.0,65.1
2234.0,65.17
2236.0,65.23
2238.0,65.245
2240.0,65.3
2242.0,65.19
2244.0,65.17
2246.0,65.19
2248.0,65.41
2250.0,65.45
2252.0,65.19
2254.0,65.15
2256.0,65.26
2258.0,65.36
2260.0,65.12
2262.0,64.79
2264.0,64.79
2266.0,64.84
2268.0,64.75
2270.0,64.49
2272.0,64.29
2274.0,64.16
2276.0,63.9
2278.0,63.72
2280.0,63.555
2282.0,63.43
2284.0,63.32
2286.0,63.15
2288.0,62.945
2290.0,62.67
2292.0,62.47
2294.0,62.18
2296.0,61.88
2298.0,61.545
2300.0,61.26
2302.0,61.0
2304.0,60.73
2306.0,60.47
2308.0,60.08
2310.0,59.59
2312.0,59.09
2314.0,58.58
2316.0,58.23
2318.0,57.9
2320.0,57.485
2322.0,57.01
2324.0,56.48
2326.0,55.97
2328.0,55.64
2330.0,55.27
2332.0,54.81
2334.0,54.44
2336.0,54.13
2338.0,53.8
2340.0,53.21
2342.0,52.55
2344.0,51.94
2346.0,51.37
2348.0,50.9
2350.0,50.265
2352.0,49.69
2354.0,49.06
2356.0,48.36
2358.0,47.75
2360.0,47.08
2362.0,46.27
2364.0,45.7
2366.0,45.29
2368.0,44.91
2370.0,44.16
2372.0,43.41
2374.0,42.69
2376.0,42.14
2378.0,41.57
2380.0,40.95
2382.0,40.17
2384.0,39.44
2386.0,38.89
2388.0,38.295
2390.0,37.73
2392.0,37.18
2394.0,36.52
2396.0,35.835
2398.0,35.2
2400.0,34.68
2402.0,34.2
2404.0,33.73
2406.0,33.3
2408.0,32.64
2410.0,32.02
2412.0,31.43
2414.0,31.04
2416.0,30.49
2418.0,29.9
2420.0,29.24
2422.0,28.73
2424.0,28.27
2426.0,27.9
2428.0,27.22
2430.0,26.63
2432.0,25.93
2434.0,25.57
2436.0,24.91
2438.0,24.5
2440.0,23.88
2442.0,23.45
2444.0,22.79
2446.0,22.24
2448.0,21.65
2450.0,21.07
2452.0,20.33
2454.0,19.72
2456.0,19.12
2458.0,18.66
2460.0,18.175
2462.0,17.57
2464.0,17.41
2466.0,16.97
2468.0,16.56
2470.0,15.975
2472.0,15.625
2474.0,15.2
2476.0,14.8
2478.0,14.29
2480.0,13.9
2482.0,13.57
2484.0,13.37
2486.0,13.35
2488.0,12.87
2490.0,12.91
2492.0,12.6
2494.0,12.5
2496.0,12.03
2498.0,11.92
2500.0,11.93
