wavelength,reflectivity
1300.0,66.69
1302.0,66.66
1304.0,66.395
1306.0,66.43
1308.0,66.76
1310.0,66.74
1312.0,66.56
1314.0,66.48
1316.0,66.5
1318.0,66.48
1320.0,66.45
1322.0,66.46
1324.0,66.33
1326.0,66.41
1328.0,66.36
1330.0,66.27
1332.0,66.23
1334.0,66.24
1336.0,66.21
1338.0,66.18
1340.0,66.1
1342.0,66.08
1344.0,66.105
1346.0,66.12
1348.0,66.1
1350.0,66.09
1352.0,66.1
1354.0,66.09
1356.0,66.05
1358.0,66.02
1360.0,66.0
1362.0,65.99
1364.0,66.0
1366.0,66.02
1368.0,66.02
1370.0,66.035
1372.0,66.035
1374.0,66.035
1376.0,66.07
1378.0,66.07
1380.0,66.08
1382.0,66.07
1384.0,66.05
1386.0,66.0
1388.0,66.0
1390.0,65.96
1392.0,65.95
1394.0,65.95
1396.0,65.91
1398.0,65.89
1400.0,65.91
1402.0,65.89
1404.0,65.88
1406.0,65.855
1408.0,65.81
1410.0,65.8
1412.0,65.83
1414.0,65.855
1416.0,65.87
1418.0,65.89
1420.0,65.89
1422.0,65.88
1424.0,65.855
1426.0,65.85
1428.0,65.87
1430.0,65.9
1432.0,65.92
1434.0,65.89
1436.0,65.88
1438.0,65.89
1440.0,65.94
1442.0,65.99
1444.0,66.02
1446.0,66.035
1448.0,66.06
1450.0,66.06
1452.0,66.09
1454.0,66.12
1456.0,66.105
1458.0,66.105
1460.0,66.105
1462.0,66.15
1464.0,66.215
1466.0,66.21
1468.0,66.21
1470.0,66.19
1472.0,66.2
1474.0,66.21
1476.0,66.24
1478.0,66.25
1480.0,66.27
1482.0,66.285
1484.0,66.32
1486.0,66.32
1488.0,66.32
1490.0,66.34
1492.0,66.34
1494.0,66.43
1496.0,66.51
1498.0,66.54
1500.0,66.59
1502.0,66.575
1504.0,66.59
1506.0,66.67
1508.0,66.66
1510.0,66.67
1512.0,66.69
1514.0,66.69
1516.0,66.71
1518.0,66.74
1520.0,66.76
1522.0,66.8
1524.0,66.81
1526.0,66.81
1528.0,66.84
1530.0,66.86
1532.0,66.89
1534.0,66.9
1536.0,66.89
1538.0,66.9
1540.0,66.92
1542.0,66.95
1544.0,66.97
1546.0,66.99
1548.0,67.0
1550.0,67.04
1552.0,67.075
1554.0,67.09
1556.0,67.07
1558.0,67.005
1560.0,67.005
1562.0,66.99
1564.0,67.005
1566.0,67.03
1568.0,67.06
1570.0,67.11
1572.0,67.21
1574.0,67.255
1576.0,67.28
1578.0,67.3
1580.0,67.3
1582.0,67.36
1584.0,67.45
1586.0,67.53
1588.0,67.58
1590.0,67.58
1592.0,67.58
1594.0,67.55
1596.0,67.59
1598.0,67.63
1600.0,67.63
1602.0,67.63
1604.0,67.61
1606.0,67.615
1608.0,67.68
1610.0,67.72
1612.0,67.75
1614.0,67.79
1616.0,67.795
1618.0,67.79
1620.0,67.76
1622.0,67.74
1624.0,67.75
1626.0,67.77
1628.0,67.795
1630.0,67.79
1632.0,67.78
1634.0,67.795
1636.0,67.78
1638.0,67.79
1640.0,67.79
1642.0,67.75
1644.0,67.73
1646.0,67.73
1648.0,67.74
1650.0,67.76
1652.0,67.74
1654.0,67.73
1656.0,67.74
1658.0,67.78
1660.0,67.83
1662.0,67.83
1664.0,67.795
1666.0,67.84
1668.0,67.795
1670.0,67.81
1672.0,67.79
1674.0,67.75
1676.0,67.75
1678.0,67.76
1680.0,67.79
1682.0,67.82
1684.0,67.81
1686.0,67.795
1688.0,67.76
1690.0,67.76
1692.0,67.78
1694.0,67.795
1696.0,67.81
1698.0,67.79
1700.0,67.77
1702.0,67.795
1704.0,67.79
1706.0,67.76
1708.0,67.72
1710.0,67.66
1712.0,67.61
1714.0,67.59
1716.0,67.56
1718.0,67.51
1720.0,67.48
1722.0,67.48
1724.0,67.51
1726.0,67.55
1728.0,67.51
1730.0,67.49
1732.0,67.46
1734.0,67.46
1736.0,67.47
1738.0,67.47
1740.0,67.5
1742.0,67.48
1744.0,67.49
1746.0,67.47
1748.0,67.47
1750.0,67.46
1752.0,67.45
1754.0,67.435
1756.0,67.43
1758.0,67.46
1760.0,67.5
1762.0,67.5
1764.0,67.54
1766.0,67.59
1768.0,67.68
1770.0,67.82
1772.0,67.96
1774.0,68.06
1776.0,68.13
1778.0,68.18
1780.0,68.22
1782.0,68.24
1784.0,68.26
1786.0,68.26
1788.0,68.27
1790.0,68.29
1792.0,68.26
1794.0,68.21
1796.0,68.17
1798.0,68.14
1800.0,68.13
1802.0,68.12
1804.0,68.08
1806.0,68.01
1808.0,67.93
1810.0,67.86
1812.0,67.85
1814.0,67.83
1816.0,67.77
1818.0,67.64
1820.0,67.5
1822.0,67.38
1824.0,67.29
1826.0,67.2
1828.0,67.03
1830.0,66.86
1832.0,66.71
1834.0,66.56
1836.0,66.39
1838.0,66.21
1840.0,66.07
1842.0,65.95
1844.0,65.87
1846.0,65.74
1848.0,65.63
1850.0,65.49
1852.0,65.36
1854.0,65.24
1856.0,65.06
1858.0,64.81
1860.0,64.47
1862.0,64.05
1864.0,63.63
1866.0,63.16
1868.0,62.69
1870.0,62.31
1872.0,62.085
1874.0,62.21
1876.0,62.6
1878.0,63.17
1880.0,63.845
1882.0,64.5
1884.0,65.12
1886.0,65.58
1888.0,65.92
1890.0,66.2
1892.0,66.39
1894.0,66.54
1896.0,66.67
1898.0,66.75
1900.0,66.82
1902.0,66.87
1904.0,66.89
1906.0,66.9
1908.0,66.92
1910.0,66.94
1912.0,66.97
1914.0,66.97
1916.0,66.99
1918.0,67.0
1920.0,67.02
1922.0,67.02
1924.0,66.99
1926.0,67.0
1928.0,66.98
1930.0,66.97
1932.0,66.97
1934.0,66.92
1936.0,66.87
1938.0,66.82
1940.0,66.8
1942.0,66.77
1944.0,66.72
1946.0,66.62
1948.0,66.5
1950.0,66.34
1952.0,66.27
1954.0,66.18
1956.0,66.03
1958.0,65.83
1960.0,65.6
1962.0,65.4
1964.0,65.24
1966.0,65.12
1968.0,65.0
1970.0,64.86
1972.0,64.705
1974.0,64.63
1976.0,64.58
1978.0,64.525
1980.0,64.41
1982.0,64.25
1984.0,64.13
1986.0,63.98
1988.0,63.75
1990.0,63.42
1992.0,62.94
1994.0,62.38
1996.0,61.84
1998.0,61.48
2000.0,61.38
2002.0,61.53
2004.0,61.88
2006.0,62.42
2008.0,63.15
2010.0,63.845
2012.0,64.455
2014.0,64.9
2016.0,65.24
2018.0,65.51
2020.0,65.77
2022.0,66.0
2024.0,66.19
2026.0,66.35
2028.0,66.49
2030.0,66.645
2032.0,66.82
2034.0,66.99
2036.0,67.12
2038.0,67.21
2040.0,67.27
2042.0,67.28
2044.0,67.255
2046.0,67.27
2048.0,67.36
2050.0,67.45
2052.0,67.45
2054.0,67.41
2056.0,67.38
2058.0,67.4
2060.0,67.43
2062.0,67.43
2064.0,67.38
2066.0,67.3
2068.0,67.23
2070.0,67.22
2072.0,67.22
2074.0,67.18
2076.0,67.13
2078.0,67.09
2080.0,67.04
2082.0,67.0
2084.0,66.92
2086.0,66.87
2088.0,66.8
2090.0,66.71
2092.0,66.6
2094.0,66.465
2096.0,66.36
2098.0,66.26
2100.0,66.17
2102.0,66.0
2104.0,65.8
2106.0,65.63
2108.0,65.49
2110.0,65.41
2112.0,65.36
2114.0,65.28
2116.0,65.15
2118.0,64.97
2120.0,64.85
2122.0,64.73
2124.0,64.62
2126.0,64.5
2128.0,64.34
2130.0,64.18
2132.0,63.97
2134.0,63.77
2136.0,63.54
2138.0,63.21
2140.0,62.85
2142.0,62.47
2144.0,62.07
2146.0,61.68
2148.0,61.29
2150.0,60.96
2152.0,60.74
2154.0,60.575
2156.0,60.47
2158.0,60.39
2160.0,60.38
2162.0,60.41
2164.0,60.46
2166.0,60.6
2168.0,60.755
2170.0,60.98
2172.0,61.17
2174.0,61.365
2176.0,61.615
2178.0,61.85
2180.0,62.0
2182.0,62.11
2184.0,62.14
2186.0,62.23
2188.0,62.29
2190.0,62.35
2192.0,62.35
2194.0,62.29
2196.0,62.22
2198.0,62.14
2200.0,62.02
2202.0,61.83
2204.0,61.64
2206.0,61.45
2208.0,61.3
2210.0,61.1
2212.0,60.85
2214.0,60.61
2216.0,60.36
2218.0,60.14
2220.0,59.91
2222.0,59.605
2224.0,59.2
2226.0,58.84
2228.0,58.47
2230.0,58.11
2232.0,57.71
2234.0,57.3
2236.0,56.92
2238.0,56.47
2240.0,56.07
2242.0,55.6
2244.0,55.115
2246.0,54.64
2248.0,54.14
2250.0,53.62
2252.0,53.05
2254.0,52.49
2256.0,51.87
2258.0,51.235
2260.0,50.64
2262.0,50.06
2264.0,49.43
2266.0,48.77
2268.0,48.04
2270.0,47.3
2272.0,46.52
2274.0,45.68
2276.0,44.79
2278.0,43.92
2280.0,43.14
2282.0,42.49
2284.0,41.9
2286.0,41.35
2288.0,40.86
2290.0,40.4
2292.0,40.0
2294.0,39.63
2296.0,39.3
2298.0,39.05
2300.0,38.86
2302.0,38.69
2304.0,38.47
2306.0,38.24
2308.0,38.025
2310.0,37.8
2312.0,37.44
2314.0,36.97
2316.0,36.46
2318.0,35.99
2320.0,35.475
2322.0,34.865
2324.0,34.22
2326.0,33.57
2328.0,33.01
2330.0,32.44
2332.0,31.98
2334.0,31.64
2336.0,31.47
2338.0,31.4
2340.0,31.51
2342.0,31.79
2344.0,32.2
2346.0,32.76
2348.0,33.44
2350.0,34.35
2352.0,35.37
2354.0,36.57
2356.0,37.94
2358.0,39.39
2360.0,40.96
2362.0,42.53
2364.0,44.13
2366.0,45.71
2368.0,47.2
2370.0,48.52
2372.0,49.63
2374.0,50.54
2376.0,51.4
2378.0,52.18
2380.0,52.925
2382.0,53.55
2384.0,54.02
2386.0,54.43
2388.0,54.81
2390.0,55.15
2392.0,55.33
2394.0,55.36
2396.0,55.31
2398.0,55.09
2400.0,54.865
2402.0,54.7
2404.0,54.64
2406.0,54.61
2408.0,54.68
2410.0,54.73
2412.0,54.755
2414.0,54.56
2416.0,54.38
2418.0,54.09
2420.0,53.71
2422.0,53.15
2424.0,52.58
2426.0,51.95
2428.0,51.33
2430.0,50.67
2432.0,50.05
2434.0,49.4
2436.0,48.76
2438.0,48.09
2440.0,47.37
2442.0,46.58
2444.0,45.86
2446.0,45.14
2448.0,44.43
2450.0,43.68
2452.0,42.85
2454.0,41.97
2456.0,41.06
2458.0,40.16
2460.0,38.98
2462.0,37.85
2464.0,36.75
2466.0,35.78
2468.0,34.64
2470.0,33.625
2472.0,32.7
2474.0,31.97
2476.0,31.24
2478.0,30.555
2480.0,29.8
2482.0,29.29
2484.0,28.85
2486.0,28.56
2488.0,28.23
2490.0,28.02
2492.0,27.75
2494.0,27.69
2496.0,27.6
2498.0,27.4
2500.0,27.12
